Scan Count	Temperature [ITS-90, deg C]	Conductivity [S/m]	Pressure, Strain Gauge [db]	Depth [salt water, m]	Oxygen Saturation, Weiss [ml/l]	Salinity, Practical [PSU]
1	16.27913	0.0052345	0.0108	0.0108	6.855282	0.03319
2	16.28086	0.0051109	0.0077	0.0077	6.855057	0.03253
3	16.28239	0.0050275	0.0169	0.0168	6.854853	0.03209
4	16.28386	0.0049410	0.0078	0.0078	6.854658	0.03163
5	16.28553	0.0048607	0.0047	0.0047	6.854434	0.03120
6	16.28686	0.0047958	0.0108	0.0107	6.854254	0.03086
7	16.28839	0.0047247	0.0108	0.0107	6.854047	0.03048
8	16.28993	0.0046691	0.0047	0.0047	6.853836	0.03019
9	16.29126	0.0046444	0.0139	0.0138	6.853648	0.03006
10	16.29259	0.0046907	0.0169	0.0168	6.853444	0.03030
11	16.29386	0.0046784	0.0107	0.0107	6.853262	0.03024
12	16.29526	0.0047154	0.0169	0.0168	6.853051	0.03043
13	16.29680	0.0048267	0.0138	0.0137	6.852803	0.03102
14	16.29853	0.0048946	0.0138	0.0138	6.852536	0.03138
15	16.30026	0.0048452	0.0168	0.0167	6.852295	0.03112
16	16.30220	0.0047958	0.0138	0.0137	6.852025	0.03086
17	16.30400	0.0048328	0.0108	0.0107	6.851755	0.03105
18	16.30587	0.0051449	0.0107	0.0107	6.851415	0.03271
19	16.30727	0.0049750	0.0168	0.0167	6.851249	0.03180
20	16.30880	0.0045579	0.0137	0.0136	6.851118	0.02960
21	16.31027	0.0043602	0.0138	0.0137	6.850948	0.02856
22	16.31174	0.0042089	0.0016	0.0016	6.850767	0.02776
23	16.31300	0.0040730	0.0046	0.0046	6.850613	0.02705
24	16.31434	0.0041008	0.0077	0.0076	6.850413	0.02720
25	16.31567	0.0040575	0.0077	0.0076	6.850228	0.02697
26	16.31694	0.0039680	0.0076	0.0076	6.850064	0.02650
27	16.31794	0.0038135	0.0076	0.0075	6.849952	0.02570
28	16.31921	0.0036777	0.0108	0.0107	6.849797	0.02500
29	16.32001	0.0035820	0.0077	0.0076	6.849701	0.02450
30	16.32128	0.0035264	0.0046	0.0046	6.849529	0.02421
31	16.32241	0.0034677	0.0106	0.0105	6.849377	0.02391
32	16.32321	0.0034399	0.0106	0.0106	6.849266	0.02377
33	16.32401	0.0034677	0.0077	0.0076	6.849144	0.02391
34	16.32522	0.0034924	0.0108	0.0107	6.848964	0.02404
35	16.32608	0.0035264	0.0077	0.0076	6.848831	0.02421
36	16.32695	0.0035387	0.0076	0.0076	6.848702	0.02428
37	16.32802	0.0035356	0.0075	0.0075	6.848548	0.02426
38	16.32882	0.0034677	0.0138	0.0137	6.848446	0.02391
39	16.32989	0.0033782	0.0107	0.0107	6.848310	0.02345
40	16.33062	0.0033751	0.0137	0.0137	6.848205	0.02343
41	16.33182	0.0033164	0.0137	0.0136	6.848043	0.02313
42	16.33289	0.0032485	0.0107	0.0106	6.847902	0.02278
43	16.33409	0.0032362	0.0077	0.0076	6.847730	0.02272
44	16.33576	0.0032176	0.0137	0.0137	6.847492	0.02262
45	16.33650	0.0031929	0.0138	0.0137	6.847391	0.02250
46	16.33777	0.0031003	0.0107	0.0106	6.847226	0.02202
47	16.33863	0.0030201	0.0137	0.0136	6.847117	0.02161
48	16.33964	0.0029676	0.0168	0.0167	6.846983	0.02135
49	16.34044	0.0029151	0.0077	0.0076	6.846878	0.02108
50	16.34144	0.0028781	0.0107	0.0106	6.846740	0.02089
51	16.34224	0.0028441	0.0137	0.0136	6.846631	0.02072
52	16.34291	0.0028225	0.0138	0.0137	6.846539	0.02061
53	16.34391	0.0028071	0.0106	0.0106	6.846396	0.02053
54	16.34451	0.0027886	0.0076	0.0076	6.846313	0.02044
55	16.34531	0.0027731	0.0107	0.0106	6.846200	0.02036
56	16.34598	0.0027731	0.0137	0.0136	6.846103	0.02036
57	16.34698	0.0027484	0.0137	0.0136	6.845963	0.02024
58	16.34772	0.0027361	0.0107	0.0106	6.845859	0.02017
59	16.34832	0.0027176	0.0106	0.0106	6.845776	0.02008
60	16.34898	0.0027268	0.0076	0.0075	6.845677	0.02013
61	16.34979	0.0027268	0.0137	0.0136	6.845561	0.02013
62	16.35032	0.0027268	0.0107	0.0106	6.845483	0.02013
63	16.35099	0.0027268	0.0137	0.0137	6.845386	0.02013
64	16.35192	0.0027176	0.0167	0.0166	6.845252	0.02008
65	16.35232	0.0027176	0.0107	0.0106	6.845194	0.02008
66	16.35266	0.0027176	0.0167	0.0166	6.845146	0.02008
67	16.35366	0.0027022	0.0076	0.0075	6.845004	0.02000
68	16.35419	0.0026929	0.0167	0.0166	6.844928	0.01996
69	16.35473	0.0026775	0.0137	0.0136	6.844854	0.01988
70	16.35553	0.0026559	0.0107	0.0106	6.844742	0.01977
71	16.35606	0.0026466	0.0106	0.0106	6.844667	0.01972
72	16.35680	0.0026466	0.0106	0.0105	6.844560	0.01972
73	16.35707	0.0026188	0.0107	0.0106	6.844527	0.01958
74	16.35787	0.0026157	0.0168	0.0167	6.844411	0.01957
75	16.35834	0.0026126	0.0076	0.0075	6.844344	0.01955
76	16.35867	0.0026034	0.0137	0.0136	6.844298	0.01951
77	16.35954	0.0026003	0.0137	0.0137	6.844172	0.01949
78	16.36001	0.0026034	0.0107	0.0106	6.844104	0.01951
79	16.36047	0.0025910	0.0076	0.0076	6.844039	0.01944
80	16.36108	0.0025849	0.0138	0.0137	6.843953	0.01941
81	16.36161	0.0025571	0.0106	0.0106	6.843881	0.01927
82	16.36188	0.0025509	0.0076	0.0076	6.843844	0.01924
83	16.36235	0.0025324	0.0106	0.0105	6.843780	0.01915
84	16.36295	0.0025201	0.0137	0.0136	6.843695	0.01909
85	16.36341	0.0025139	0.0045	0.0045	6.843628	0.01906
86	16.36381	0.0024861	0.0168	0.0167	6.843576	0.01892
87	16.36422	0.0024799	0.0137	0.0136	6.843519	0.01889
88	16.36495	0.0024676	0.0106	0.0106	6.843415	0.01883
89	16.36529	0.0024645	0.0167	0.0166	6.843367	0.01881
90	16.36562	0.0024522	0.0137	0.0136	6.843321	0.01875
91	16.36615	0.0024337	0.0106	0.0105	6.843248	0.01866
92	16.36649	0.0024182	0.0108	0.0107	6.843203	0.01858
93	16.36682	0.0024059	0.0167	0.0166	6.843157	0.01852
94	16.36722	0.0023843	0.0076	0.0076	6.843103	0.01841
95	16.36756	0.0023812	0.0137	0.0136	6.843055	0.01840
96	16.36802	0.0023719	0.0106	0.0106	6.842989	0.01835
97	16.36823	0.0023627	0.0137	0.0136	6.842962	0.01830
98	16.36889	0.0023534	0.0107	0.0106	6.842867	0.01826
99	16.36916	0.0023380	0.0107	0.0106	6.842832	0.01818
100	16.36963	0.0023349	0.0075	0.0075	6.842764	0.01817
101	16.37010	0.0023349	0.0107	0.0106	6.842697	0.01817
102	16.37036	0.0023226	0.0137	0.0136	6.842660	0.01810
103	16.37063	0.0023164	0.0137	0.0136	6.842623	0.01807
104	16.37103	0.0023133	0.0137	0.0136	6.842565	0.01806
105	16.37137	0.0023071	0.0107	0.0106	6.842518	0.01803
106	16.37163	0.0023010	0.0137	0.0137	6.842481	0.01800
107	16.37203	0.0022917	0.0137	0.0136	6.842425	0.01795
108	16.37224	0.0022824	0.0106	0.0106	6.842397	0.01790
109	16.37270	0.0022670	0.0137	0.0136	6.842333	0.01783
110	16.37310	0.0022639	0.0077	0.0076	6.842275	0.01781
111	16.37324	0.0022547	0.0137	0.0137	6.842258	0.01777
112	16.37357	0.0022423	0.0107	0.0106	6.842212	0.01771
113	16.37384	0.0022362	0.0106	0.0106	6.842174	0.01768
114	16.37437	0.0022269	0.0077	0.0076	6.842099	0.01763
115	16.37464	0.0022207	0.0167	0.0166	6.842061	0.01760
116	16.37498	0.0022269	0.0137	0.0136	6.842012	0.01763
117	16.37524	0.0022454	0.0137	0.0136	6.841969	0.01772
118	16.37524	0.0022917	0.0077	0.0076	6.841959	0.01795
119	16.37584	0.0023472	0.0106	0.0106	6.841861	0.01823
120	16.37604	0.0024059	0.0168	0.0167	6.841820	0.01852
121	16.37645	0.0024799	0.0106	0.0106	6.841746	0.01889
122	16.37665	0.0025478	0.0077	0.0076	6.841703	0.01923
123	16.37711	0.0026188	0.0076	0.0076	6.841620	0.01958
124	16.37731	0.0026929	0.0137	0.0136	6.841576	0.01996
125	16.37765	0.0027731	0.0137	0.0136	6.841511	0.02036
126	16.37798	0.0028534	0.0168	0.0167	6.841445	0.02077
127	16.37832	0.0029398	0.0137	0.0136	6.841379	0.02121
128	16.37838	0.0030201	0.0138	0.0137	6.841352	0.02161
129	16.37865	0.0031312	0.0137	0.0136	6.841290	0.02218
130	16.37879	0.0032701	0.0077	0.0076	6.841241	0.02289
131	16.37932	0.0034152	0.0107	0.0106	6.841133	0.02364
132	16.37945	0.0035202	0.0106	0.0106	6.841091	0.02418
133	16.37986	0.0035573	0.0168	0.0167	6.841025	0.02437
134	16.37999	0.0035820	0.0106	0.0106	6.841000	0.02449
135	16.38032	0.0036468	0.0168	0.0167	6.840938	0.02483
136	16.38059	0.0037086	0.0167	0.0166	6.840886	0.02515
137	16.38072	0.0037611	0.0137	0.0136	6.840855	0.02542
138	16.38092	0.0039031	0.0107	0.0106	6.840796	0.02616
139	16.38133	0.0038043	0.0137	0.0136	6.840759	0.02564
140	16.38159	0.0036993	0.0168	0.0167	6.840743	0.02510
141	16.38159	0.0036128	0.0077	0.0076	6.840761	0.02465
142	16.38193	0.0036283	0.0077	0.0076	6.840709	0.02473
143	16.38213	0.0035912	0.0137	0.0136	6.840688	0.02454
144	16.38240	0.0035665	0.0077	0.0076	6.840655	0.02441
145	16.38260	0.0036190	0.0107	0.0106	6.840615	0.02469
146	16.38253	0.0037240	0.0106	0.0105	6.840602	0.02523
147	16.38293	0.0039216	0.0076	0.0076	6.840501	0.02625
148	16.38326	0.0040421	0.0076	0.0076	6.840427	0.02688
149	16.38353	0.0041193	0.0077	0.0076	6.840371	0.02728
150	16.38353	0.0041996	0.0106	0.0106	6.840354	0.02770
151	16.38353	0.0043200	0.0047	0.0046	6.840328	0.02833
152	16.38380	0.0043849	0.0076	0.0076	6.840275	0.02867
153	16.38380	0.0044220	0.0106	0.0106	6.840267	0.02887
154	16.38407	0.0044220	0.0106	0.0106	6.840228	0.02887
155	16.38407	0.0043787	0.0107	0.0106	6.840237	0.02864
156	16.38380	0.0043293	0.0107	0.0106	6.840287	0.02838
157	16.38440	0.0042614	0.0106	0.0106	6.840215	0.02803
158	16.38447	0.0042089	0.0137	0.0137	6.840216	0.02775
159	16.38447	0.0041533	0.0077	0.0076	6.840228	0.02746
160	16.38447	0.0042428	0.0107	0.0106	6.840209	0.02793
161	16.38453	0.0041625	0.0076	0.0076	6.840217	0.02751
162	16.38467	0.0040019	0.0107	0.0106	6.840232	0.02667
163	16.38487	0.0038908	0.0107	0.0107	6.840227	0.02609
164	16.38487	0.0037981	0.0107	0.0106	6.840247	0.02561
165	16.38520	0.0037580	0.0107	0.0107	6.840207	0.02540
166	16.38527	0.0037518	0.0077	0.0076	6.840199	0.02537
167	16.38540	0.0037981	0.0137	0.0137	6.840169	0.02561
168	16.38581	0.0037734	0.0106	0.0105	6.840117	0.02548
169	16.38627	0.0037425	0.0137	0.0136	6.840055	0.02532
170	16.38674	0.0037487	0.0107	0.0106	6.839986	0.02536
171	16.38721	0.0038877	0.0137	0.0136	6.839889	0.02608
172	16.38788	0.0038938	0.0137	0.0136	6.839790	0.02611
173	16.38861	0.0039216	0.0137	0.0136	6.839678	0.02625
174	16.38942	0.0039124	0.0137	0.0137	6.839564	0.02620
175	16.38982	0.0039216	0.0137	0.0137	6.839503	0.02625
176	16.38962	0.0040205	0.0168	0.0167	6.839511	0.02677
177	16.38948	0.0040205	0.0106	0.0106	6.839531	0.02677
178	16.38895	0.0040266	0.0107	0.0106	6.839607	0.02680
179	16.38721	0.0041008	0.0137	0.0136	6.839843	0.02719
180	16.38614	0.0041224	0.0168	0.0167	6.839993	0.02730
181	16.38587	0.0041378	0.0107	0.0106	6.840028	0.02738
182	16.38527	0.0041533	0.0137	0.0137	6.840112	0.02746
183	16.38574	0.0041903	0.0137	0.0137	6.840036	0.02765
184	16.38627	0.0041996	0.0107	0.0106	6.839957	0.02770
185	16.38741	0.0041841	0.0077	0.0076	6.839795	0.02762
186	16.38808	0.0041718	0.0137	0.0136	6.839701	0.02756
187	16.38895	0.0041841	0.0047	0.0046	6.839573	0.02762
188	16.38875	0.0041718	0.0106	0.0106	6.839604	0.02756
189	16.38714	0.0041286	0.0138	0.0137	6.839846	0.02733
190	16.38079	0.0041440	0.0107	0.0107	6.840763	0.02741
191	16.37257	0.0041378	0.0137	0.0136	6.841956	0.02738
192	16.36736	0.0041224	0.0076	0.0076	6.842715	0.02730
193	16.36268	0.1787254	0.0503	0.0500	6.798975	1.10129
194	16.07723	3.1153833	0.1658	0.1649	5.956784	23.86198
195	15.33070	3.3106722	0.3394	0.3375	5.969357	26.00499
196	14.69757	3.3413108	0.5280	0.5251	6.021651	26.69922
197	14.10059	3.3505749	0.6832	0.6795	6.077848	27.19630
198	13.65923	3.3583136	0.7380	0.7340	6.119508	27.58031
199	13.41355	3.3630893	0.7441	0.7401	6.142681	27.80161
200	13.25680	3.3704616	0.7472	0.7431	6.156001	27.98385
201	13.15137	3.3749694	0.7381	0.7340	6.165129	28.10302
202	13.08495	3.3795109	0.7380	0.7340	6.170282	28.19412
203	13.04248	3.3822370	0.7319	0.7279	6.173639	28.25088
204	13.01567	3.3875766	0.7380	0.7339	6.174473	28.32028
205	13.00710	3.3921113	0.7411	0.7371	6.173734	28.36868
206	13.01609	3.3975647	0.7380	0.7340	6.170882	28.41248
207	13.02369	3.3999775	0.7381	0.7340	6.169253	28.42914
208	13.01409	3.3983095	0.7380	0.7339	6.170821	28.42088
209	12.99386	3.3970048	0.7380	0.7339	6.173341	28.42394
210	12.97528	3.3945548	0.7349	0.7309	6.176102	28.41514
211	12.96660	3.3952040	0.7380	0.7340	6.176755	28.42766
212	12.96308	3.3979218	0.7442	0.7401	6.176145	28.45551
213	12.96047	3.3991823	0.7441	0.7400	6.175961	28.46917
214	12.95811	3.3962860	0.7350	0.7310	6.177234	28.44407
215	12.95071	3.3914885	0.7349	0.7309	6.179697	28.40511
216	12.93840	3.3917685	0.7380	0.7339	6.180851	28.41693
217	12.92857	3.3920103	0.7411	0.7371	6.181766	28.42654
218	12.92633	3.3922076	0.7441	0.7400	6.181924	28.43005
219	12.93136	3.3939699	0.7411	0.7370	6.180783	28.44264
220	12.93925	3.3959934	0.7411	0.7371	6.179258	28.45551
221	12.94573	3.3939379	0.7350	0.7309	6.179330	28.43157
222	12.94646	3.3900320	0.7381	0.7341	6.180649	28.39477
223	12.94143	3.3899939	0.7381	0.7340	6.181175	28.39819
224	12.93355	3.3911770	0.7411	0.7370	6.181557	28.41508
225	12.92760	3.3932191	0.7410	0.7369	6.181434	28.43849
226	12.92609	3.3958281	0.7381	0.7340	6.180657	28.46385
227	12.92912	3.3967573	0.7411	0.7370	6.180017	28.47021
228	12.93154	3.3933845	0.7350	0.7309	6.180973	28.43707
229	12.92954	3.3907381	0.7350	0.7310	6.182121	28.41400
230	12.92542	3.3918259	0.7381	0.7340	6.182153	28.42719
231	12.92245	3.3938745	0.7380	0.7339	6.181725	28.44844
232	12.92294	3.3957963	0.7411	0.7370	6.180990	28.46593
233	12.92754	3.3960954	0.7411	0.7370	6.180414	28.46524
234	12.93318	3.3945553	0.7410	0.7369	6.180389	28.44671
235	12.93597	3.3914250	0.7410	0.7369	6.181221	28.41556
236	12.93458	3.3912597	0.7473	0.7431	6.181422	28.41507
237	12.93197	3.3925002	0.7381	0.7340	6.181245	28.42854
238	12.93051	3.3941862	0.7411	0.7370	6.180792	28.44529
239	12.93179	3.3956689	0.7502	0.7461	6.180134	28.45809
240	12.93403	3.3953634	0.7410	0.7370	6.180014	28.45358
241	12.93530	3.3939698	0.7411	0.7370	6.180381	28.43968
242	12.93470	3.3926019	0.7441	0.7401	6.180931	28.42744
243	12.93324	3.3926019	0.7471	0.7430	6.181080	28.42853
244	12.93148	3.3931236	0.7472	0.7431	6.181073	28.43469
245	12.93045	3.3936454	0.7473	0.7431	6.180991	28.44031
246	12.93033	3.3939953	0.7411	0.7370	6.180879	28.44365
247	12.93045	3.3944280	0.7472	0.7431	6.180712	28.44757
248	12.93088	3.3949307	0.7472	0.7431	6.180490	28.45192
249	12.93239	3.3954716	0.7442	0.7401	6.180142	28.45581
250	12.93543	3.3959935	0.7442	0.7401	6.179647	28.45838
251	12.93888	3.3963244	0.7502	0.7461	6.179178	28.45885
252	12.94173	3.3958979	0.7441	0.7400	6.179039	28.45276
253	12.94434	3.3949815	0.7381	0.7340	6.179100	28.44230
254	12.94628	3.3952360	0.7381	0.7341	6.178812	28.44320
255	12.94865	3.4047614	0.7107	0.7068	6.175176	28.52986
256	12.97801	3.3979980	0.6438	0.6402	6.174598	28.44506
257	13.02825	3.3816589	0.6193	0.6159	6.175292	28.25616
258	13.04637	3.3853638	0.6103	0.6069	6.172132	28.27696
259	13.06103	3.3920725	0.6103	0.6070	6.168263	28.32810
260	13.06796	3.3954065	0.6042	0.6008	6.166377	28.35377
261	13.06796	3.3978887	0.6103	0.6069	6.165497	28.37673
262	13.07898	3.4003270	0.6133	0.6099	6.163516	28.39106
263	13.10888	3.4018423	0.6103	0.6070	6.159949	28.38273
264	13.12942	3.3993332	0.6193	0.6159	6.158754	28.34422
265	13.13722	3.3865389	0.6864	0.6826	6.162482	28.22025
266	13.13533	3.3859795	0.7899	0.7855	6.162873	28.21646
267	13.12210	3.3859479	0.9116	0.9065	6.164229	28.22594
268	13.09865	3.3879064	1.0333	1.0277	6.165921	28.26141
269	13.08105	3.3924032	1.1398	1.1335	6.166119	28.31604
270	13.07673	3.3995504	1.1794	1.1729	6.164027	28.38536
271	13.11967	3.3995563	1.1886	1.1820	6.159672	28.35335
272	13.21950	3.3966015	1.1854	1.1789	6.150604	28.25183
273	13.28776	3.3943224	1.1885	1.1819	6.144502	28.18029
274	13.31373	3.3934759	1.1825	1.1760	6.142175	28.15333
275	13.30742	3.3964159	1.1916	1.1850	6.141784	28.18501
276	13.29529	3.4009935	1.1885	1.1820	6.141405	28.23607
277	13.29425	3.4034136	1.1886	1.1820	6.140662	28.25910
278	13.28874	3.4041845	1.1855	1.1790	6.140948	28.27028
279	13.29125	3.4046559	1.1855	1.1790	6.140530	28.27276
280	13.30056	3.4040569	1.1916	1.1850	6.139801	28.26034
281	13.30650	3.4040378	1.1946	1.1880	6.139209	28.25576
282	13.31465	3.4058725	1.1915	1.1850	6.137745	28.26660
283	13.32556	3.4086954	1.1886	1.1821	6.135659	28.28446
284	13.34003	3.4102314	1.1916	1.1851	6.133665	28.28785
285	13.35260	3.4112513	1.1886	1.1821	6.132044	28.28790
286	13.36008	3.4117421	1.1917	1.1851	6.131120	28.28686
287	13.36462	3.4119716	1.1916	1.1850	6.130583	28.28561
288	13.36800	3.4128898	1.1917	1.1851	6.129924	28.29154
289	13.37168	3.4144011	1.1916	1.1851	6.129026	28.30269
290	13.37561	3.4155874	1.1916	1.1851	6.128218	28.31067
291	13.37947	3.4164039	1.1886	1.1821	6.127545	28.31530
292	13.38322	3.4167739	1.1918	1.1852	6.127040	28.31592
293	13.38678	3.4166717	1.1917	1.1852	6.126718	28.31234
294	13.39015	3.4175266	1.1886	1.1821	6.126081	28.31769
295	13.39335	3.4192047	1.1917	1.1851	6.125176	28.33072
296	13.39691	3.4198938	1.1886	1.1821	6.124578	28.33441
297	13.40029	3.4204362	1.1886	1.1821	6.124050	28.33688
298	13.40299	3.4209149	1.1886	1.1821	6.123612	28.33927
299	13.40600	3.4207489	1.1887	1.1822	6.123368	28.33551
300	13.40901	3.4208510	1.1916	1.1851	6.123031	28.33422
301	13.41208	3.4219041	1.1947	1.1882	6.122356	28.34160
302	13.41552	3.4230595	1.1887	1.1821	6.121609	28.34965
303	13.41927	3.4236851	1.1917	1.1852	6.121016	28.35261
304	13.42314	3.4239724	1.1826	1.1761	6.120528	28.35238
305	13.42695	3.4239468	1.1979	1.1913	6.120155	28.34931
306	13.43058	3.4242213	1.1918	1.1852	6.119696	28.34914
307	13.43420	3.4251982	1.1887	1.1822	6.118993	28.35541
308	13.43789	3.4261305	1.1918	1.1853	6.118299	28.36122
309	13.44164	3.4265839	1.1887	1.1822	6.117766	28.36260
310	13.44453	3.4268521	1.1889	1.1823	6.117384	28.36291
311	13.44761	3.4265200	1.1887	1.1822	6.117191	28.35758
312	13.45056	3.4258813	1.1888	1.1822	6.117118	28.34954
313	13.45284	3.4264880	1.1888	1.1822	6.116679	28.35341
314	13.45530	3.4278037	1.1858	1.1793	6.115976	28.36365
315	13.45880	3.4286724	1.1888	1.1823	6.115323	28.36901
316	13.46212	3.4289598	1.1887	1.1822	6.114891	28.36918
317	13.46446	3.4291451	1.1919	1.1854	6.114593	28.36914
318	13.46742	3.4289278	1.1918	1.1853	6.114373	28.36496
319	13.47062	3.4290492	1.1950	1.1884	6.114011	28.36370
320	13.47388	3.4296241	1.1889	1.1824	6.113485	28.36655
321	13.47782	3.4302438	1.1889	1.1824	6.112876	28.36930
322	13.48200	3.4306143	1.1919	1.1854	6.112329	28.36959
323	13.48606	3.4306207	1.1889	1.1824	6.111921	28.36664
324	13.49000	3.4306142	1.1919	1.1854	6.111529	28.36365
325	13.49364	3.4310104	1.1859	1.1794	6.111029	28.36459
326	13.49696	3.4316557	1.1890	1.1825	6.110473	28.36804
327	13.50090	3.4320327	1.1920	1.1854	6.109949	28.36856
328	13.50448	3.4322180	1.1890	1.1824	6.109528	28.36761
329	13.50780	3.4320326	1.1920	1.1854	6.109260	28.36345
330	13.51113	3.4314639	1.1890	1.1825	6.109124	28.35577
331	13.51353	3.4315725	1.1920	1.1854	6.108847	28.35498
332	13.51556	3.4326588	1.1860	1.1795	6.108267	28.36343
333	13.51828	3.4331893	1.1921	1.1856	6.107813	28.36627
334	13.52136	3.4330998	1.1861	1.1796	6.107536	28.36317
335	13.52321	3.4332212	1.1891	1.1825	6.107310	28.36291
336	13.52530	3.4330039	1.1891	1.1826	6.107176	28.35937
337	13.52789	3.4325309	1.1921	1.1856	6.107081	28.35312
338	13.52999	3.4323775	1.1891	1.1825	6.106925	28.35016
339	13.53153	3.4327290	1.1861	1.1796	6.106650	28.35224
340	13.53375	3.4331571	1.1891	1.1826	6.106280	28.35451
341	13.53720	3.4334128	1.1952	1.1887	6.105847	28.35429
342	13.54090	3.4335533	1.1892	1.1827	6.105429	28.35284
343	13.54478	3.4337898	1.1892	1.1826	6.104960	28.35212
344	13.54860	3.4341477	1.1953	1.1887	6.104455	28.35256
345	13.55243	3.4344800	1.1892	1.1827	6.103959	28.35277
346	13.55601	3.4346462	1.1862	1.1796	6.103544	28.35164
347	13.55915	3.4347293	1.1892	1.1827	6.103202	28.35007
348	13.56205	3.4347101	1.1923	1.1857	6.102920	28.34775
349	13.56501	3.4347292	1.1954	1.1888	6.102618	28.34573
350	13.56804	3.4349785	1.1893	1.1828	6.102230	28.34577
351	13.57112	3.4352022	1.1893	1.1827	6.101845	28.34554
352	13.57396	3.4351766	1.1863	1.1798	6.101571	28.34320
353	13.57600	3.4352021	1.1923	1.1858	6.101359	28.34192
354	13.57791	3.4351766	1.1893	1.1828	6.101178	28.34028
355	13.58038	3.4347930	1.1863	1.1797	6.101064	28.33494
356	13.58266	3.4342496	1.1863	1.1798	6.101024	28.32829
357	13.58402	3.4344477	1.1894	1.1828	6.100820	28.32909
358	13.58526	3.4351062	1.1894	1.1829	6.100470	28.33420
359	13.58766	3.4353746	1.1895	1.1829	6.100137	28.33487
360	13.59038	3.4353298	1.1865	1.1800	6.099882	28.33245
361	13.59217	3.4353746	1.1894	1.1829	6.099688	28.33153
362	13.59390	3.4352978	1.1865	1.1800	6.099542	28.32955
363	13.59637	3.4352403	1.1895	1.1830	6.099316	28.32720
364	13.59890	3.4353297	1.1896	1.1830	6.099033	28.32615
365	13.60174	3.4354704	1.1895	1.1830	6.098702	28.32533
366	13.60477	3.4354256	1.1835	1.1770	6.098416	28.32268
367	13.60773	3.4351059	1.1805	1.1740	6.098230	28.31757
368	13.61002	3.4347607	1.1927	1.1862	6.098122	28.31273
369	13.61119	3.4349780	1.1805	1.1740	6.097930	28.31385
370	13.61255	3.4353935	1.1866	1.1801	6.097651	28.31664
371	13.61478	3.4356045	1.1958	1.1892	6.097357	28.31692
372	13.61737	3.4356108	1.1897	1.1831	6.097097	28.31506
373	13.61960	3.4354702	1.1928	1.1862	6.096924	28.31213
374	13.62157	3.4352016	1.1806	1.1741	6.096819	28.30822
375	13.62337	3.4352400	1.1897	1.1832	6.096628	28.30724
376	13.62522	3.4355404	1.1898	1.1832	6.096340	28.30862
377	13.62726	3.4354573	1.1837	1.1772	6.096165	28.30635
378	13.62880	3.4353102	1.1929	1.1863	6.096062	28.30387
379	13.62961	3.4352655	1.1868	1.1802	6.095997	28.30287
380	13.63103	3.4350097	1.1868	1.1803	6.095944	28.29948
381	13.63270	3.4344472	1.1868	1.1803	6.095971	28.29311
382	13.63313	3.4340828	1.1838	1.1773	6.096054	28.28947
383	13.63257	3.4345431	1.1838	1.1773	6.095951	28.29408
384	13.63356	3.4348435	1.1838	1.1773	6.095749	28.29609
385	13.63567	3.4347604	1.1900	1.1834	6.095568	28.29378
386	13.63764	3.4343449	1.1870	1.1805	6.095514	28.28853
387	13.63869	3.4336289	1.1870	1.1804	6.095656	28.28122
388	13.63783	3.4329579	1.1869	1.1804	6.095973	28.27573
389	13.63517	3.4327534	1.1870	1.1805	6.096308	28.27583
390	13.63295	3.4331560	1.1871	1.1806	6.096391	28.28115
391	13.63319	3.4335395	1.1901	1.1836	6.096235	28.28446
392	13.63591	3.4337185	1.1932	1.1866	6.095902	28.28409
393	13.63950	3.4337504	1.1871	1.1805	6.095534	28.28173
394	13.64290	3.4335714	1.1901	1.1836	6.095257	28.27759
395	13.64543	3.4331559	1.1902	1.1836	6.095148	28.27193
396	13.64723	3.4327852	1.1902	1.1837	6.095097	28.26722
397	13.64778	3.4325615	1.1932	1.1866	6.095118	28.26477
398	13.64704	3.4328171	1.1903	1.1837	6.095104	28.26765
399	13.64717	3.4333221	1.1902	1.1837	6.094918	28.27217
400	13.64927	3.4334435	1.1903	1.1837	6.094667	28.27173
401	13.65168	3.4333859	1.1872	1.1807	6.094447	28.26942
402	13.65391	3.4333795	1.1872	1.1807	6.094228	28.26772
403	13.65595	3.4334242	1.1904	1.1838	6.094009	28.26662
404	13.65793	3.4334434	1.1873	1.1808	6.093805	28.26534
405	13.65954	3.4332900	1.1933	1.1868	6.093698	28.26275
406	13.66071	3.4331941	1.1873	1.1808	6.093614	28.26101
407	13.66158	3.4331557	1.1873	1.1808	6.093541	28.26003
408	13.66269	3.4330918	1.1935	1.1869	6.093452	28.25862
409	13.66405	3.4330343	1.1874	1.1809	6.093337	28.25709
410	13.66578	3.4329895	1.1936	1.1870	6.093180	28.25541
411	13.66727	3.4329384	1.1875	1.1809	6.093049	28.25385
412	13.66875	3.4328616	1.1936	1.1870	6.092928	28.25205
413	13.67042	3.4328169	1.1967	1.1901	6.092777	28.25041
414	13.67197	3.4327274	1.1906	1.1841	6.092654	28.24846
415	13.67333	3.4326571	1.1966	1.1901	6.092543	28.24681
416	13.67445	3.4326251	1.1906	1.1841	6.092443	28.24570
417	13.67569	3.4325931	1.1937	1.1872	6.092331	28.24450
418	13.67680	3.4324973	1.1907	1.1841	6.092253	28.24281
419	13.67785	3.4323439	1.1907	1.1842	6.092201	28.24063
420	13.67866	3.4321969	1.1938	1.1873	6.092171	28.23870
421	13.67952	3.4320946	1.1968	1.1902	6.092120	28.23713
422	13.68014	3.4321330	1.1907	1.1842	6.092045	28.23702
423	13.68088	3.4321010	1.1908	1.1843	6.091982	28.23618
424	13.68175	3.4320626	1.1938	1.1873	6.091909	28.23520
425	13.68237	3.4319029	1.1909	1.1844	6.091903	28.23329
426	13.68311	3.4317175	1.1908	1.1843	6.091892	28.23105
427	13.68386	3.4314683	1.1970	1.1904	6.091904	28.22823
428	13.68423	3.4314300	1.1909	1.1843	6.091880	28.22761
429	13.68478	3.4315003	1.1939	1.1874	6.091801	28.22784
430	13.68534	3.4314300	1.2001	1.1935	6.091770	28.22678
431	13.68608	3.4311744	1.1940	1.1874	6.091783	28.22391
432	13.68658	3.4307079	1.1940	1.1875	6.091894	28.21929
433	13.68677	3.4300817	1.1941	1.1875	6.092091	28.21345
434	13.68615	3.4298965	1.2002	1.1936	6.092216	28.21221
435	13.68522	3.4301456	1.1971	1.1906	6.092223	28.21517
436	13.68491	3.4304140	1.1972	1.1907	6.092161	28.21784
437	13.68540	3.4305865	1.1942	1.1876	6.092053	28.21905
438	13.68652	3.4305098	1.1942	1.1876	6.091968	28.21753
439	13.68701	3.4303948	1.2002	1.1936	6.091959	28.21612
440	13.68757	3.4302478	1.2004	1.1938	6.091954	28.21437
441	13.68819	3.4300498	1.1974	1.1908	6.091960	28.21211
442	13.68844	3.4299156	1.1974	1.1908	6.091981	28.21071
443	13.68899	3.4298325	1.1974	1.1908	6.091954	28.20954
444	13.68955	3.4297495	1.1974	1.1908	6.091928	28.20837
445	13.69017	3.4296089	1.1944	1.1878	6.091914	28.20664
446	13.69042	3.4294556	1.1975	1.1909	6.091942	28.20506
447	13.69073	3.4293598	1.1975	1.1909	6.091944	28.20396
448	13.69104	3.4293917	1.1945	1.1879	6.091902	28.20402
449	13.69128	3.4294236	1.1975	1.1909	6.091867	28.20413
450	13.69141	3.4292959	1.1975	1.1910	6.091898	28.20287
451	13.69159	3.4290914	1.1946	1.1880	6.091950	28.20087
452	13.69166	3.4287656	1.1976	1.1910	6.092056	28.19786
453	13.69166	3.4283951	1.1976	1.1911	6.092183	28.19448
454	13.69166	3.4281971	1.1916	1.1850	6.092251	28.19268
455	13.69153	3.4281652	1.1977	1.1911	6.092274	28.19248
456	13.69141	3.4281396	1.1946	1.1881	6.092295	28.19234
457	13.69141	3.4279352	1.1947	1.1882	6.092365	28.19047
458	13.69141	3.4276669	1.2009	1.1943	6.092457	28.18803
459	13.69128	3.4275392	1.1948	1.1882	6.092514	28.18696
460	13.69091	3.4276414	1.1978	1.1912	6.092515	28.18816
461	13.69091	3.4276669	1.2009	1.1943	6.092507	28.18839
462	13.69085	3.4276031	1.2040	1.1973	6.092535	28.18785
463	13.69110	3.4274498	1.2070	1.2004	6.092563	28.18627
464	13.69091	3.4272071	1.1980	1.1914	6.092665	28.18420
465	13.69104	3.4270091	1.1979	1.1913	6.092720	28.18231
466	13.69085	3.4267791	1.1980	1.1914	6.092818	28.18035
467	13.69060	3.4266003	1.2010	1.1944	6.092904	28.17890
468	13.69042	3.4263512	1.2011	1.1945	6.093008	28.17677
469	13.69005	3.4261916	1.2041	1.1975	6.093099	28.17558
470	13.68949	3.4261852	1.2011	1.1945	6.093157	28.17594
471	13.68906	3.4262555	1.1981	1.1915	6.093176	28.17690
472	13.68893	3.4261916	1.1950	1.1884	6.093210	28.17641
473	13.68868	3.4260894	1.2012	1.1946	6.093270	28.17566
474	13.68881	3.4259106	1.2011	1.1945	6.093319	28.17393
475	13.68868	3.4256616	1.1951	1.1886	6.093417	28.17176
476	13.68862	3.4254125	1.1983	1.1917	6.093509	28.16953
477	13.68837	3.4252273	1.2013	1.1947	6.093597	28.16803
478	13.68794	3.4250358	1.2013	1.1947	6.093706	28.16660
479	13.68757	3.4249336	1.1953	1.1887	6.093778	28.16594
480	13.68726	3.4249336	1.1923	1.1857	6.093809	28.16617
481	13.68707	3.4248761	1.1954	1.1888	6.093847	28.16578
482	13.68683	3.4246335	1.1955	1.1889	6.093955	28.16375
483	13.68646	3.4243143	1.2016	1.1950	6.094102	28.16112
484	13.68621	3.4241419	1.1985	1.1919	6.094185	28.15973
485	13.68546	3.4242504	1.2015	1.1949	6.094222	28.16126
486	13.68534	3.4241738	1.2107	1.2040	6.094261	28.16065
487	13.68503	3.4239376	1.2016	1.1950	6.094373	28.15873
488	13.68466	3.4236439	1.1986	1.1920	6.094510	28.15633
489	13.68423	3.4232544	1.2047	1.1981	6.094687	28.15309
490	13.68398	3.4229672	1.1986	1.1920	6.094811	28.15066
491	13.68373	3.4227884	1.1957	1.1891	6.094897	28.14921
492	13.68324	3.4227182	1.1987	1.1921	6.094970	28.14894
493	13.68311	3.4226607	1.1957	1.1891	6.095002	28.14851
494	13.68299	3.4226224	1.1958	1.1892	6.095028	28.14825
495	13.68287	3.4224948	1.2019	1.1953	6.095084	28.14717
496	13.68274	3.4224054	1.1958	1.1892	6.095127	28.14645
497	13.68262	3.4222969	1.1959	1.1893	6.095176	28.14555
498	13.68231	3.4221309	1.1958	1.1892	6.095264	28.14427
499	13.68200	3.4219650	1.2050	1.1984	6.095352	28.14298
500	13.68163	3.4217352	1.1959	1.1893	6.095468	28.14116
501	13.68157	3.4214607	1.1929	1.1864	6.095568	28.13871
502	13.68138	3.4211735	1.2021	1.1955	6.095686	28.13622
503	13.68144	3.4209628	1.1960	1.1894	6.095752	28.13426
504	13.68119	3.4207459	1.1991	1.1925	6.095851	28.13246
505	13.68051	3.4205544	1.1930	1.1865	6.095985	28.13122
506	13.67989	3.4204204	1.1961	1.1895	6.096092	28.13045
507	13.67927	3.4203502	1.1992	1.1926	6.096178	28.13027
508	13.67872	3.4202736	1.1961	1.1895	6.096260	28.12998
509	13.67835	3.4201523	1.1962	1.1896	6.096339	28.12915
510	13.67804	3.4199609	1.2054	1.1988	6.096435	28.12762
511	13.67791	3.4197567	1.1992	1.1926	6.096518	28.12586
512	13.67742	3.4194312	1.1962	1.1896	6.096679	28.12325
513	13.67680	3.4189335	1.1963	1.1897	6.096912	28.11917
514	13.67569	3.4186081	1.1994	1.1928	6.097135	28.11702
515	13.67414	3.4184613	1.1933	1.1867	6.097339	28.11682
516	13.67241	3.4184422	1.2024	1.1958	6.097519	28.11792
517	13.67154	3.4184614	1.1995	1.1929	6.097598	28.11873
518	13.67098	3.4183784	1.2025	1.1959	6.097683	28.11838
519	13.67067	3.4182763	1.2026	1.1960	6.097749	28.11767
520	13.67036	3.4180786	1.2025	1.1959	6.097847	28.11610
521	13.66987	3.4179191	1.2026	1.1960	6.097952	28.11501
522	13.66925	3.4177085	1.2057	1.1991	6.098086	28.11354
523	13.66838	3.4175554	1.2027	1.1961	6.098225	28.11278
524	13.66764	3.4173066	1.1965	1.1899	6.098384	28.11106
525	13.66684	3.4169940	1.2027	1.1961	6.098572	28.10880
526	13.66585	3.4167452	1.1966	1.1900	6.098756	28.10726
527	13.66479	3.4165666	1.2028	1.1962	6.098923	28.10640
528	13.66374	3.4164007	1.1967	1.1901	6.099084	28.10566
529	13.66251	3.4163051	1.1967	1.1901	6.099241	28.10570
530	13.66145	3.4162094	1.1998	1.1932	6.099379	28.10560
531	13.66046	3.4160563	1.2060	1.1994	6.099530	28.10492
532	13.65954	3.4158777	1.1968	1.1902	6.099684	28.10398
533	13.65836	3.4156800	1.1999	1.1933	6.099869	28.10304
534	13.65756	3.4154823	1.1999	1.1933	6.100018	28.10182
535	13.65638	3.4152207	1.2030	1.1964	6.100225	28.10030
536	13.65521	3.4149593	1.2030	1.1964	6.100432	28.09878
537	13.65397	3.4147297	1.1970	1.1905	6.100635	28.09759
538	13.65261	3.4145256	1.2001	1.1935	6.100841	28.09673
539	13.65125	3.4143343	1.1971	1.1905	6.101042	28.09598
540	13.64995	3.4141812	1.2002	1.1936	6.101225	28.09554
541	13.64859	3.4139389	1.2032	1.1966	6.101444	28.09433
542	13.64723	3.4138050	1.2063	1.1997	6.101626	28.09410
543	13.64599	3.4137157	1.2032	1.1966	6.101780	28.09420
544	13.64500	3.4136456	1.2003	1.1937	6.101903	28.09428
545	13.64376	3.4135244	1.2033	1.1967	6.102068	28.09408
546	13.64308	3.4133140	1.2034	1.1968	6.102209	28.09266
547	13.64234	3.4129314	1.2003	1.1937	6.102415	28.08972
548	13.64160	3.4125233	1.1973	1.1908	6.102629	28.08654
549	13.64086	3.4121981	1.1974	1.1908	6.102815	28.08412
550	13.63981	3.4119367	1.2065	1.1999	6.103010	28.08250
551	13.63857	3.4118028	1.1974	1.1909	6.103180	28.08219
552	13.63727	3.4117455	1.2005	1.1939	6.103329	28.08262
553	13.63622	3.4117391	1.2035	1.1969	6.103437	28.08333
554	13.63536	3.4116052	1.2036	1.1970	6.103569	28.08274
555	13.63461	3.4114331	1.2068	1.2001	6.103703	28.08172
556	13.63400	3.4111462	1.2036	1.1970	6.103863	28.07955
557	13.63332	3.4107828	1.2068	1.2001	6.104056	28.07674
558	13.63270	3.4105214	1.2037	1.1970	6.104208	28.07481
559	13.63159	3.4102792	1.2038	1.1972	6.104403	28.07341
560	13.63066	3.4101262	1.1947	1.1881	6.104548	28.07270
561	13.62955	3.4099987	1.1977	1.1912	6.104703	28.07235
562	13.62837	3.4096928	1.2070	1.2003	6.104926	28.07042
563	13.62726	3.4092466	1.2039	1.1973	6.105191	28.06717
564	13.62584	3.4089725	1.2039	1.1973	6.105427	28.06571
565	13.62411	3.4088833	1.2009	1.1943	6.105631	28.06616
566	13.62244	3.4089790	1.2039	1.1973	6.105765	28.06825
567	13.62145	3.4088770	1.2071	1.2005	6.105899	28.06805
568	13.62065	3.4085519	1.2132	1.2065	6.106092	28.06567
569	13.61960	3.4079465	1.2041	1.1975	6.106405	28.06092
570	13.61867	3.4073729	1.2072	1.2005	6.106695	28.05636
571	13.61682	3.4071435	1.2011	1.1945	6.106960	28.05563
572	13.61391	3.4069142	1.2042	1.1976	6.107330	28.05566
573	13.61101	3.4066529	1.1981	1.1915	6.107710	28.05541
574	13.60928	3.4064491	1.2042	1.1976	6.107954	28.05481
575	13.60872	3.4063599	1.2044	1.1977	6.108040	28.05441
576	13.60835	3.4061942	1.2073	1.2007	6.108134	28.05317
577	13.60798	3.4061050	1.2042	1.1976	6.108202	28.05262
578	13.60736	3.4060285	1.2074	1.2008	6.108290	28.05238
579	13.60650	3.4059202	1.2044	1.1977	6.108414	28.05202
580	13.60545	3.4057036	1.2044	1.1978	6.108594	28.05082
581	13.60452	3.4053086	1.2014	1.1948	6.108823	28.04789
582	13.60366	3.4049264	1.2075	1.2009	6.109041	28.04504
583	13.60248	3.4046843	1.1984	1.1919	6.109242	28.04369
584	13.60082	3.4045187	1.2016	1.1949	6.109466	28.04340
585	13.59940	3.4043913	1.1985	1.1919	6.109653	28.04328
586	13.59816	3.4042957	1.1985	1.1920	6.109809	28.04331
587	13.59730	3.4041492	1.2017	1.1951	6.109946	28.04260
588	13.59618	3.4039963	1.2017	1.1951	6.110110	28.04202
589	13.59520	3.4038052	1.2016	1.1950	6.110275	28.04100
590	13.59427	3.4036078	1.2016	1.1950	6.110436	28.03988
591	13.59322	3.4034740	1.2017	1.1951	6.110588	28.03942
592	13.59192	3.4033721	1.2079	1.2013	6.110753	28.03944
593	13.59075	3.4031811	1.2048	1.1982	6.110936	28.03856
594	13.58958	3.4028116	1.2049	1.1983	6.111181	28.03604
595	13.58847	3.4023594	1.1988	1.1922	6.111448	28.03273
596	13.58692	3.4020346	1.2049	1.1983	6.111715	28.03090
597	13.58544	3.4018754	1.2080	1.2013	6.111919	28.03053
598	13.58347	3.4018373	1.2019	1.1953	6.112130	28.03163
599	13.58198	3.4018436	1.2020	1.1954	6.112276	28.03277
600	13.58087	3.4017736	1.2051	1.1985	6.112412	28.03294
601	13.57976	3.4014807	1.2081	1.2015	6.112624	28.03108
602	13.57865	3.4011304	1.2051	1.1985	6.112857	28.02870
603	13.57760	3.4008566	1.2052	1.1985	6.113056	28.02696
604	13.57624	3.4007547	1.2053	1.1986	6.113228	28.02703
605	13.57501	3.4006911	1.2053	1.1987	6.113373	28.02735
606	13.57378	3.4004300	1.2022	1.1956	6.113587	28.02587
607	13.57254	3.3999779	1.1992	1.1926	6.113867	28.02265
608	13.57112	3.3995832	1.2053	1.1987	6.114146	28.02008
609	13.56927	3.3993285	1.2054	1.1988	6.114420	28.01911
610	13.56693	3.3991248	1.2054	1.1987	6.114725	28.01897
611	13.56458	3.3982081	1.2176	1.2109	6.115277	28.01231
612	13.54601	3.3887218	1.2815	1.2745	6.120423	27.93923
613	13.39101	3.3781104	1.3820	1.3744	6.139736	27.95543
614	13.17986	3.3751979	1.4764	1.4683	6.162161	28.08382
615	12.98839	3.3745271	1.6012	1.5924	6.181905	28.21943
616	12.83879	3.3738685	1.7229	1.7134	6.197444	28.32489
617	12.70202	3.3739018	1.8355	1.8254	6.211469	28.42780
618	12.58708	3.3734524	1.9603	1.9495	6.223464	28.51028
619	12.45586	3.3711181	2.0943	2.0828	6.237864	28.58782
620	12.33995	3.3658156	2.2435	2.2312	6.251819	28.62610
621	12.24648	3.3622403	2.4109	2.3977	6.262854	28.66367
622	12.16370	3.3587488	2.5966	2.5823	6.272777	28.69396
623	12.09615	3.3581983	2.7762	2.7609	6.280039	28.74051
624	12.05226	3.3578123	2.9588	2.9426	6.284775	28.77053
625	12.03061	3.3573437	3.1505	3.1332	6.287219	28.78268
626	12.02245	3.3575529	3.3515	3.3331	6.287998	28.79088
627	12.03440	3.3576859	3.5553	3.5358	6.286701	28.78287
628	12.05836	3.3582623	3.7472	3.7265	6.283980	28.76981
629	12.09597	3.3594281	3.9602	3.9384	6.279617	28.75187
630	12.12069	3.3589399	4.1641	4.1412	6.277219	28.72818
631	12.13587	3.3582300	4.3864	4.3622	6.275901	28.70972
632	12.15313	3.3580461	4.6147	4.5893	6.274170	28.69466
633	12.15266	3.3553662	4.8276	4.8011	6.275218	28.66958
634	12.10284	3.3525293	5.0408	5.0130	6.281483	28.68081
635	12.02807	3.3507319	5.2842	5.2551	6.289987	28.72107
636	11.95273	3.3492830	5.5156	5.4852	6.298438	28.76520
637	11.86925	3.3477396	5.7377	5.7061	6.307800	28.81486
638	11.78084	3.3462660	5.9600	5.9271	6.317676	28.86917
639	11.69739	3.3457355	6.1853	6.1512	6.326695	28.92885
640	11.62010	3.3440217	6.4105	6.3752	6.335531	28.97258
641	11.51869	3.3392161	6.6296	6.5931	6.348134	29.00557
642	11.38818	3.3350518	6.8579	6.8202	6.363636	29.06770
643	11.25280	3.3318308	7.0892	7.0501	6.379357	29.14312
644	11.12934	3.3306762	7.3145	7.2742	6.393051	29.22956
645	11.01751	3.3279301	7.5427	7.5011	6.406162	29.29167
646	10.91266	3.3276472	7.7741	7.7312	6.417586	29.37253
647	10.82855	3.3264674	7.9901	7.9461	6.427151	29.42832
648	10.75686	3.3258054	8.2245	8.1792	6.435184	29.47938
649	10.69683	3.3255473	8.4467	8.4002	6.441803	29.52516
650	10.64989	3.3254468	8.6689	8.6211	6.446946	29.56201
651	10.61593	3.3251632	8.8911	8.8421	6.450756	29.58662
652	10.59162	3.3249426	9.1133	9.0631	6.453493	29.60406
653	10.56749	3.3243243	9.3203	9.2689	6.456372	29.61744
654	10.53372	3.3236052	9.5456	9.4929	6.460346	29.63767
655	10.50100	3.3229682	9.7679	9.7140	6.464175	29.65789
656	10.46480	3.3199083	9.9870	9.9319	6.469370	29.65700
657	10.40857	3.3168561	10.2121	10.1557	6.476762	29.67248
658	10.34371	3.3143535	10.4313	10.3737	6.484890	29.70048
659	10.28038	3.3128854	10.6505	10.5917	6.492445	29.73759
660	10.21794	3.3118083	10.8727	10.8126	6.499756	29.77795
661	10.16945	3.3115253	11.1101	11.0487	6.505215	29.81487
662	10.12765	3.3100322	11.3262	11.2636	6.510441	29.83427
663	10.08663	3.3080668	11.5513	11.4875	6.515785	29.84833
664	10.03583	3.3052580	11.7583	11.6934	6.522566	29.86205
665	9.97502	3.3029729	11.9867	11.9205	6.530252	29.88930
666	9.92018	3.3021173	12.1999	12.1325	6.536694	29.92602
667	9.86653	3.2997196	12.4159	12.3473	6.543659	29.94633
668	9.78587	3.2935609	12.6380	12.5682	6.555225	29.95125
669	9.66641	3.2878910	12.8694	12.7983	6.570965	29.99340
670	9.53757	3.2837452	13.0824	13.0101	6.587177	30.05901
671	9.41379	3.2807945	13.3107	13.2372	6.602371	30.13283
672	9.30461	3.2785038	13.5300	13.4552	6.615686	30.20143
673	9.21709	3.2752406	13.7582	13.6822	6.627008	30.24203
674	9.14395	3.2735848	13.9834	13.9061	6.636029	30.28700
675	9.07867	3.2687052	14.2057	14.1271	6.645582	30.29234
676	9.00683	3.2552337	14.4339	14.3541	6.659670	30.21491
677	8.90962	3.2486443	14.6530	14.5719	6.673704	30.22963
678	8.78733	3.2453242	14.8690	14.7868	6.689233	30.29954
679	8.68123	3.2425054	15.0944	15.0109	6.702726	30.36109
680	8.60000	3.2407435	15.3104	15.2257	6.712908	30.41248
681	8.53140	3.2357016	15.5297	15.4438	6.723123	30.41900
682	8.44962	3.2349905	15.7488	15.6617	6.732948	30.48206
683	8.38591	3.2327990	15.9740	15.8857	6.741358	30.51421
684	8.33368	3.2305144	16.1870	16.0975	6.748487	30.53550
685	8.28222	3.2285737	16.4063	16.3155	6.755383	30.55976
686	8.23516	3.2273136	16.6315	16.5395	6.761465	30.58738
687	8.19849	3.2267587	16.8568	16.7635	6.766017	30.61340
688	8.17500	3.2262660	17.0667	16.9722	6.768998	30.62861
689	8.15939	3.2261726	17.2950	17.1992	6.770876	30.64116
690	8.15014	3.2258608	17.5233	17.4263	6.772107	30.64585
691	8.14511	3.2242638	17.7699	17.6715	6.773434	30.63333
692	8.12283	3.2160897	18.0103	17.9106	6.779807	30.56666
693	8.04077	3.2134174	18.2204	18.1195	6.790704	30.61004
694	7.95137	3.2102665	18.4486	18.3464	6.802717	30.65490
695	7.87411	3.2090468	18.6708	18.5674	6.812428	30.70971
696	7.81820	3.2084932	18.8960	18.7913	6.819317	30.75295
697	7.78058	3.2082757	19.1183	19.0124	6.823886	30.78371
698	7.75839	3.2083383	19.3374	19.2302	6.826495	30.80387
699	7.74542	3.2068069	19.5626	19.4542	6.828757	30.79895
700	7.72934	3.2058610	19.7818	19.6722	6.831116	30.80300
701	7.71141	3.2050956	20.0041	19.8932	6.833612	30.81061
702	7.69471	3.2036271	20.2201	20.1080	6.836294	30.80965
703	7.67363	3.2009706	20.4515	20.3382	6.840058	30.79991
704	7.63804	3.1977678	20.6645	20.5500	6.845815	30.79717
705	7.59047	3.1972212	20.8898	20.7740	6.851758	30.83338
706	7.55206	3.1961211	21.1182	21.0011	6.856875	30.85561
707	7.52268	3.1953319	21.3281	21.2098	6.860768	30.87318
708	7.49848	3.1952389	21.5533	21.4337	6.863714	30.89360
709	7.48202	3.1945740	21.7785	21.6578	6.866007	30.90103
710	7.46736	3.1925604	22.0008	21.8788	6.868727	30.89242
711	7.44114	3.1884289	22.2261	22.1028	6.873846	30.87139
712	7.39028	3.1840514	22.4453	22.3207	6.882054	30.86963
713	7.32461	3.1822954	22.6613	22.5356	6.890810	30.90923
714	7.26987	3.1819112	22.8896	22.7626	6.897604	30.95393
715	7.23657	3.1820854	23.1057	22.9774	6.901546	30.98553
716	7.21808	3.1812664	23.3280	23.1985	6.904181	30.99318
717	7.20570	3.1815396	23.5470	23.4163	6.905549	31.00713
718	7.19922	3.1808447	23.7784	23.6464	6.906673	31.00534
719	7.19400	3.1806896	23.9976	23.8643	6.907383	31.00826
720	7.18946	3.1805408	24.2168	24.0823	6.908009	31.01063
721	7.18659	3.1804726	24.4360	24.3003	6.908394	31.01237
722	7.18476	3.1803548	24.6612	24.5243	6.908676	31.01264
723	7.18294	3.1801439	24.8773	24.7391	6.909004	31.01190
724	7.18090	3.1797531	25.0965	24.9571	6.909444	31.00941
725	7.17735	3.1786921	25.3247	25.1841	6.910391	31.00104
726	7.16828	3.1765707	25.5408	25.3989	6.912521	30.98619
727	7.14955	3.1749397	25.7630	25.6199	6.915584	30.98528
728	7.12698	3.1741462	25.9913	25.8469	6.918711	30.99687
729	7.10780	3.1735512	26.2105	26.0649	6.921331	31.00756
730	7.09020	3.1736073	26.4357	26.2888	6.923445	31.02390
731	7.07661	3.1729750	26.6519	26.5038	6.925408	31.02918
732	7.06308	3.1716423	26.8680	26.7187	6.927705	31.02684
733	7.04420	3.1715558	27.0902	26.9396	6.930047	31.04280
734	7.02782	3.1696159	27.3093	27.1575	6.932990	31.03644
735	7.00770	3.1689903	27.5316	27.3786	6.935749	31.04768
736	6.98708	3.1652792	27.7569	27.6025	6.940080	31.02592
737	6.95623	3.1635639	27.9851	27.8295	6.944686	31.03500
738	6.92568	3.1633785	28.2287	28.0717	6.948513	31.06045
739	6.90623	3.1630196	28.4965	28.3380	6.951070	31.07400
740	6.89374	3.1623324	28.6974	28.5378	6.952939	31.07772
741	6.88188	3.1578135	28.9257	28.7648	6.956616	31.03919
742	6.84350	3.1463848	29.1508	28.9887	6.966951	30.94934
743	6.75783	3.1423201	29.3670	29.2036	6.979502	30.98224
744	6.67068	3.1401716	29.5953	29.4306	6.991320	31.03751
745	6.60260	3.1408270	29.8085	29.6426	6.999410	31.10639
746	6.56345	3.1416304	30.0367	29.8695	7.003854	31.15072
747	6.54115	3.1417543	30.2650	30.0965	7.006557	31.17231
748	6.52404	3.1414395	30.4751	30.3054	7.008837	31.18436
749	6.50951	3.1408838	30.7003	30.5293	7.010921	31.19142
750	6.49534	3.1408593	30.9286	30.7564	7.012694	31.20398
751	6.48420	3.1402604	31.1418	30.9683	7.014379	31.20748
752	6.47163	3.1399889	31.3701	31.1954	7.016079	31.21588
753	6.46045	3.1397544	31.5892	31.4133	7.017589	31.22342
754	6.45220	3.1395137	31.8083	31.6311	7.018739	31.22822
755	6.44569	3.1390075	32.0183	31.8399	7.019807	31.22851
756	6.43912	3.1377481	32.2466	32.0669	7.021261	31.22054
757	6.42918	3.1370630	32.4658	32.2849	7.022845	31.22200
758	6.41632	3.1356928	32.6819	32.4998	7.025139	31.21858
759	6.39901	3.1343537	32.9072	32.7238	7.027972	31.21957
760	6.37956	3.1348230	33.1202	32.9356	7.030160	31.24246
761	6.36594	3.1353972	33.3425	33.1567	7.031568	31.26117
762	6.35888	3.1355763	33.5679	33.3808	7.032361	31.26952
763	6.35111	3.1351877	33.7871	33.5987	7.033530	31.27227
764	6.34118	3.1341016	34.0123	33.8227	7.035320	31.26928
765	6.32109	3.1309244	34.2376	34.0466	7.039440	31.25253
766	6.27818	3.1298886	34.4567	34.2645	7.045324	31.28040
767	6.23689	3.1261398	34.6820	34.4885	7.052396	31.27678
768	6.18785	3.1246177	34.9102	34.7155	7.059315	31.30496
769	6.13861	3.1243593	35.1265	34.9305	7.065622	31.34741
770	6.10127	3.1240886	35.3456	35.1484	7.070449	31.37880
771	6.07672	3.1240211	35.5708	35.3724	7.073570	31.40066
772	6.06255	3.1239412	35.7960	35.5963	7.075396	31.41280
773	6.05427	3.1238550	36.0182	35.8172	7.076486	31.41940
774	6.04903	3.1237381	36.2375	36.0353	7.077208	31.42285
775	6.04512	3.1236457	36.4505	36.2471	7.077751	31.42534
776	6.04223	3.1235595	36.6788	36.4741	7.078164	31.42696
777	6.04035	3.1234980	36.8950	36.6890	7.078437	31.42791
778	6.03842	3.1235289	37.1142	36.9070	7.078668	31.42994
779	6.03690	3.1237385	37.3303	37.1219	7.078756	31.43359
780	6.03583	3.1237078	37.5404	37.3308	7.078911	31.43413
781	6.03522	3.1236462	37.7442	37.5334	7.079024	31.43392
782	6.03401	3.1234244	37.9574	37.7454	7.079296	31.43248
783	6.03015	3.1233505	38.1675	37.9543	7.079823	31.43513
784	6.02588	3.1232890	38.3744	38.1600	7.080396	31.43830
785	6.02314	3.1231412	38.5876	38.3720	7.080821	31.43910
786	6.02015	3.1230488	38.8280	38.6110	7.081251	31.44074
787	6.01756	3.1230551	39.0441	38.8260	7.081577	31.44310
788	6.01507	3.1228765	39.2482	39.0288	7.081987	31.44332
789	6.01188	3.1227410	39.4583	39.2378	7.082463	31.44468
790	6.00909	3.1227287	39.6683	39.4466	7.082825	31.44704
791	6.00675	3.1226672	39.8723	39.6494	7.083155	31.44842
792	6.00488	3.1224886	40.0915	39.8674	7.083488	31.44807
793	6.00183	3.1224332	40.3137	40.0883	7.083905	31.45017
794	5.99869	3.1222792	40.5329	40.3063	7.084385	31.45127
795	5.99575	3.1222547	40.7581	40.5302	7.084772	31.45362
796	5.99392	3.1222055	40.9985	40.7692	7.085033	31.45466
797	5.99240	3.1221070	41.2329	41.0023	7.085280	31.45486
798	5.99103	3.1220763	41.4674	41.2355	7.085474	31.45568
799	5.98961	3.1218299	41.7019	41.4686	7.085785	31.45414
800	5.98702	3.1217190	41.9271	41.6925	7.086173	31.45520
801	5.98368	3.1215712	42.1524	41.9165	7.086675	31.45655
802	5.98038	3.1213310	42.3868	42.1497	7.087219	31.45683
803	5.97410	3.1202345	42.6303	42.3917	7.088583	31.45032
804	5.95691	3.1187563	42.8679	42.6280	7.091518	31.44968
805	5.92895	3.1180113	43.0930	42.8518	7.095435	31.46725
806	5.90298	3.1172603	43.3274	43.0849	7.099107	31.48291
807	5.88153	3.1167987	43.5620	43.3181	7.102061	31.49762
808	5.86545	3.1162078	43.7872	43.5420	7.104405	31.50589
809	5.85225	3.1159986	44.0276	43.7810	7.106187	31.51574
810	5.84215	3.1157956	44.2620	44.0142	7.107576	31.52279
811	5.83548	3.1156172	44.4965	44.2473	7.108518	31.52690
812	5.83062	3.1154695	44.7309	44.4803	7.109214	31.52966
813	5.82699	3.1151679	44.9561	44.7042	7.109836	31.52957
814	5.82391	3.1152296	45.1904	44.9373	7.110199	31.53303
815	5.82143	3.1150203	45.4249	45.1704	7.110626	31.53289
816	5.81966	3.1149527	45.6624	45.4065	7.110891	31.53366
817	5.81790	3.1147004	45.8968	45.6395	7.111251	31.53238
818	5.81542	3.1142264	46.1281	45.8696	7.111817	31.52927
819	5.81128	3.1140480	46.3565	46.0967	7.112439	31.53103
820	5.80749	3.1139865	46.5879	46.3267	7.112956	31.53376
821	5.80492	3.1139559	46.8193	46.5568	7.113303	31.53572
822	5.80320	3.1138082	47.0506	46.7868	7.113603	31.53555
823	5.80158	3.1137344	47.2729	47.0078	7.113851	31.53613
824	5.80027	3.1138699	47.5073	47.2408	7.113951	31.53876
825	5.80073	3.1141347	47.7325	47.4648	7.113761	31.54120
826	5.80265	3.1141717	47.9699	47.7009	7.113504	31.53971
827	5.80436	3.1141964	48.1953	47.9250	7.113278	31.53827
828	5.80547	3.1141349	48.4297	48.1580	7.113175	31.53643
829	5.80598	3.1141719	48.6641	48.3910	7.113097	31.53626
830	5.80618	3.1140796	48.9017	48.6273	7.113125	31.53493
831	5.80608	3.1140181	49.1573	48.8814	7.113175	31.53421
832	5.80542	3.1137966	49.3796	49.1025	7.113379	31.53224
833	5.80360	3.1135135	49.6110	49.3325	7.113762	31.53065
834	5.80088	3.1133351	49.8485	49.5687	7.114206	31.53108
835	5.79739	3.1131382	50.0707	49.7895	7.114755	31.53203
836	5.79401	3.1129228	50.3111	50.0286	7.115301	31.53266
837	5.79038	3.1122459	50.5425	50.2587	7.116120	31.52835
838	5.78412	3.1117106	50.7708	50.4857	7.117198	31.52809
839	5.77453	3.1101784	51.0083	50.7218	7.119220	31.51975
840	5.75915	3.1097910	51.2397	50.9518	7.121379	31.52967
841	5.74432	3.1095820	51.4681	51.1790	7.123375	31.54108
842	5.73424	3.1102406	51.7086	51.4181	7.124315	31.55778
843	5.72587	3.1095824	51.9399	51.6481	7.125727	31.55811
844	5.71338	3.1084936	52.1774	51.8842	7.127891	31.55747
845	5.69660	3.1083708	52.4058	52.1113	7.130092	31.57168
846	5.68114	3.1081988	52.6432	52.3473	7.132152	31.58412
847	5.67027	3.1078729	52.8745	52.5773	7.133711	31.59054
848	5.66272	3.1077131	53.0999	52.8014	7.134761	31.59571
849	5.65502	3.1075164	53.3404	53.0406	7.135849	31.60060
850	5.64667	3.1071352	53.5778	53.2765	7.137118	31.60404
851	5.63727	3.1057823	53.8093	53.5067	7.139033	31.59752
852	5.62178	3.1053336	54.0437	53.7398	7.141247	31.60690
853	5.60705	3.1049833	54.2690	53.9638	7.143313	31.61667
854	5.59454	3.1046022	54.5034	54.1968	7.145115	31.62402
855	5.58364	3.1044794	54.7379	54.4299	7.146575	31.63277
856	5.57555	3.1040061	54.9783	54.6690	7.147862	31.63493
857	5.56807	3.1028934	55.2067	54.8961	7.149410	31.62931
858	5.55723	3.1019162	55.4411	55.1291	7.151316	31.62837
859	5.54297	3.1014738	55.6787	55.3653	7.153376	31.63667
860	5.52832	3.1014925	55.9069	55.5922	7.155243	31.65056
861	5.51729	3.1014189	56.1444	55.8284	7.156697	31.66001
862	5.50996	3.1011793	56.3849	56.0675	7.157765	31.66409
863	5.50385	3.1001530	56.6103	56.2915	7.159097	31.65815
864	5.49367	3.0991515	56.8416	56.5215	7.160936	31.65631
865	5.47914	3.0979720	57.0791	56.7577	7.163428	31.65656
866	5.46226	3.0978248	57.3106	56.9878	7.165673	31.67070
867	5.44683	3.0972966	57.5419	57.2178	7.167935	31.67917
868	5.43286	3.0967685	57.7702	57.4448	7.170011	31.68626
869	5.41925	3.0961483	58.0106	57.6838	7.172093	31.69198
870	5.40610	3.0956202	58.2421	57.9139	7.174067	31.69832
871	5.39494	3.0954423	58.4735	58.1440	7.175598	31.70673
872	5.38719	3.0953442	58.7110	58.3801	7.176651	31.71283
873	5.38264	3.0952951	58.9486	58.6164	7.177266	31.71647
874	5.37954	3.0952215	59.1981	58.8644	7.177709	31.71844
875	5.37759	3.0951541	59.4600	59.1248	7.178002	31.71939
876	5.37594	3.0950313	59.6761	59.3396	7.178284	31.71946
877	5.37409	3.0948164	59.9106	59.5728	7.178642	31.71866
878	5.37014	3.0946814	60.1450	59.8059	7.179226	31.72075
879	5.36545	3.0945649	60.3764	60.0360	7.179897	31.72376
880	5.36085	3.0945404	60.6079	60.2661	7.180506	31.72772
881	5.35655	3.0945344	60.8484	60.5052	7.181067	31.73160
882	5.35336	3.0946205	61.0828	60.7382	7.181437	31.73549
883	5.35131	3.0947250	61.3111	60.9652	7.181649	31.73851
884	5.35006	3.0949769	61.5486	61.2014	7.181680	31.74243
885	5.34966	3.0950322	61.7800	61.4315	7.181708	31.74333
886	5.34976	3.0953148	62.0144	61.6645	7.181549	31.74632
887	5.34956	3.0954746	62.2458	61.8945	7.181494	31.74821
888	5.34916	3.0955913	62.4803	62.1277	7.181488	31.74980
889	5.34886	3.0956835	62.7086	62.3546	7.181483	31.75102
890	5.34866	3.0958003	62.9400	62.5846	7.181451	31.75242
891	5.34831	3.0958434	63.1806	62.8239	7.181479	31.75313
892	5.34801	3.0958558	63.4121	63.0541	7.181516	31.75344
893	5.34731	3.0959173	63.6434	63.2840	7.181578	31.75469
894	5.34586	3.0959051	63.8808	63.5200	7.181776	31.75581
895	5.34481	3.0959174	64.1184	63.7563	7.181910	31.75682
896	5.34391	3.0958561	64.3376	63.9741	7.182063	31.75687
897	5.34321	3.0958439	64.5690	64.2042	7.182165	31.75729
898	5.34272	3.0958316	64.8095	64.4434	7.182241	31.75750
899	5.34247	3.0959177	65.0410	64.6735	7.182232	31.75860
900	5.34212	3.0959362	65.2724	64.9035	7.182273	31.75903
901	5.34162	3.0959179	65.5068	65.1365	7.182352	31.75918
902	5.34127	3.0958319	65.7352	65.3637	7.182448	31.75843
903	5.34097	3.0958443	65.9695	65.5966	7.182485	31.75874
904	5.34072	3.0958321	66.2040	65.8298	7.182529	31.75872
905	5.34037	3.0958137	66.4355	66.0599	7.182589	31.75873
906	5.33977	3.0957401	66.6700	66.2931	7.182711	31.75835
907	5.33992	3.0957095	66.9045	66.5262	7.182714	31.75775
908	5.34002	3.0957218	67.1419	66.7622	7.182700	31.75768
909	5.34027	3.0958017	67.3672	66.9862	7.182630	31.75824
910	5.33982	3.0958571	67.5743	67.1920	7.182663	31.75919
911	5.33882	3.0959677	67.7631	67.3798	7.182736	31.76130
912	5.33742	3.0960353	67.8514	67.4675	7.182882	31.76335
913	5.33627	3.0960660	67.8819	67.4979	7.183014	31.76478
914	5.33607	3.0962135	67.9460	67.5616	7.182962	31.76661
915	5.33687	3.0960968	68.0587	67.6737	7.182924	31.76447
916	5.33697	3.0959801	68.2111	67.8251	7.182977	31.76298
917	5.33617	3.0959679	68.3815	67.9946	7.183091	31.76351
918	5.33507	3.0959495	68.5429	68.1550	7.183245	31.76427
919	5.33432	3.0959373	68.7073	68.3185	7.183352	31.76476
920	5.33373	3.0960664	68.8657	68.4760	7.183363	31.76672
921	5.33298	3.0961278	68.9724	68.5820	7.183429	31.76807
922	5.33263	3.0961524	68.9878	68.5973	7.183461	31.76867
923	5.33263	3.0962445	68.9697	68.5793	7.183411	31.76973
924	5.33348	3.0964780	68.9758	68.5854	7.183177	31.77157
925	5.33542	3.0964349	68.9820	68.5916	7.182950	31.76923
926	5.33687	3.0948932	68.9731	68.5827	7.183590	31.75037
927	5.33797	3.0950099	68.9823	68.5919	7.183386	31.75064
928	5.33932	3.0950651	68.9825	68.5921	7.183184	31.74999
929	5.34072	3.0950651	68.9795	68.5891	7.183004	31.74867
930	5.34197	3.0950344	68.9827	68.5923	7.182860	31.74714
931	5.34212	3.0946966	68.9859	68.5954	7.183022	31.74316
932	5.34157	3.0927745	68.9829	68.5925	7.184122	31.72187
933	5.34167	3.0920132	68.9890	68.5986	7.184517	31.71314
934	5.34147	3.0917185	68.9862	68.5958	7.184700	31.70998
935	5.34082	3.0922158	68.9863	68.5958	7.184517	31.71624
936	5.34162	3.0893981	69.0017	68.6111	7.185924	31.68351
937	5.34276	3.0893981	69.0931	68.7021	7.185778	31.68238
938	5.34267	3.0886065	69.2302	68.8384	7.186218	31.67343
939	5.34077	3.0885942	69.3703	68.9777	7.186472	31.67501
940	5.33842	3.0888153	69.5196	69.1261	7.186660	31.67967
941	5.33617	3.0890179	69.7053	69.3106	7.186844	31.68400
942	5.33427	3.0891468	69.8637	69.4681	7.187023	31.68718
943	5.33278	3.0892819	70.0130	69.6166	7.187147	31.69006
944	5.33048	3.0893372	70.1776	69.7802	7.187417	31.69278
945	5.32639	3.0893434	70.3512	69.9528	7.187944	31.69664
946	5.32119	3.0892822	70.5156	70.1163	7.188649	31.70077
947	5.31595	3.0892454	70.6923	70.2919	7.189348	31.70523
948	5.31146	3.0892517	70.8962	70.4946	7.189928	31.70946
949	5.30797	3.0892825	71.0941	70.6914	7.190366	31.71302
950	5.30552	3.0892457	71.3105	70.9064	7.190705	31.71481
951	5.30372	3.0892519	71.5296	71.1243	7.190938	31.71648
952	5.30188	3.0893073	71.7397	71.3332	7.191151	31.71875
953	5.30043	3.0892828	71.9467	71.5390	7.191355	31.71974
954	5.29918	3.0892522	72.0991	71.6905	7.191536	31.72050
955	5.29809	3.0893074	72.1601	71.7511	7.191649	31.72214
956	5.29764	3.0895775	72.1967	71.7876	7.191563	31.72561
957	5.29789	3.0896942	72.3064	71.8966	7.191471	31.72665
958	5.29828	3.0894610	72.4465	72.0359	7.191548	31.72355
959	5.29739	3.0893751	72.5259	72.1148	7.191711	31.72339
960	5.29629	3.0894303	72.5046	72.0936	7.191822	31.72507
961	5.29584	3.0883747	72.4987	72.0877	7.192447	31.71351
962	5.29634	3.0886693	72.5111	72.1000	7.192225	31.71637
963	5.29784	3.0888104	72.5141	72.1031	7.191956	31.71656
964	5.29943	3.0882887	72.4991	72.0881	7.192030	31.70913
965	5.30118	3.0868835	72.5084	72.0974	7.192560	31.69151
966	5.30248	3.0860245	72.5085	72.0975	7.192854	31.68053
967	5.30153	3.0864724	72.5055	72.0945	7.192736	31.68651
968	5.30053	3.0869388	72.5118	72.1008	7.192614	31.69275
969	5.30058	3.0869510	72.5090	72.0980	7.192601	31.69284
970	5.30033	3.0870001	72.5090	72.0980	7.192607	31.69364
971	5.30053	3.0868590	72.5123	72.1012	7.192657	31.69184
972	5.30023	3.0869388	72.5156	72.1046	7.192653	31.69303
973	5.30028	3.0867363	72.5004	72.0894	7.192755	31.69069
974	5.29943	3.0868590	72.4246	72.0141	7.192796	31.69293
975	5.29933	3.0873805	72.3029	71.8931	7.192526	31.69900
976	5.30183	3.0880554	72.1843	71.7752	7.191840	31.70436
977	5.30672	3.0885033	72.0657	71.6573	7.190967	31.70488
978	5.31121	3.0880246	71.9229	71.5153	7.190642	31.69526
979	5.31266	3.0878220	71.7921	71.3853	7.190561	31.69166
980	5.31326	3.0882270	71.6614	71.2554	7.190264	31.69575
981	5.31425	3.0879937	71.5337	71.1284	7.190257	31.69222
982	5.31415	3.0878832	71.3908	70.9864	7.190326	31.69113
983	5.31356	3.0876132	71.2358	70.8322	7.190545	31.68870
984	5.31221	3.0873800	71.0776	70.6750	7.190840	31.68741
985	5.31041	3.0872327	70.9257	70.5239	7.191147	31.68751
986	5.30926	3.0873799	70.7705	70.3697	7.191212	31.69034
987	5.30876	3.0872940	70.6094	70.2095	7.191319	31.68992
988	5.30826	3.0871160	70.4331	70.0342	7.191474	31.68845
989	5.30767	3.0872019	70.2626	69.8647	7.191502	31.69008
990	5.30767	3.0870177	70.0956	69.6987	7.191597	31.68807
991	5.30787	3.0871159	69.9252	69.5293	7.191514	31.68908
992	5.30861	3.0871158	69.7549	69.3600	7.191414	31.68845
993	5.31026	3.0871096	69.5816	69.1876	7.191201	31.68691
994	5.31256	3.0871156	69.3900	68.9972	7.190898	31.68490
995	5.31540	3.0869499	69.2227	68.8309	7.190616	31.68041
996	5.31870	3.0872014	69.0585	68.6676	7.190053	31.68022
997	5.32269	3.0872872	68.8822	68.4923	7.189489	31.67751
998	5.32634	3.0867656	68.7150	68.3262	7.189295	31.66822
999	5.32918	3.0872011	68.5509	68.1629	7.188692	31.67056
1000	5.33243	3.0872870	68.3805	67.9936	7.188224	31.66854
1001	5.33512	3.0867653	68.2132	67.8273	7.188152	31.66016
1002	5.33652	3.0865567	68.0400	67.6550	7.188080	31.65655
1003	5.33742	3.0864891	67.8726	67.4887	7.187997	31.65502
1004	5.33802	3.0865259	67.6995	67.3165	7.187896	31.65495
1005	5.33872	3.0864399	67.5170	67.1351	7.187848	31.65341
1006	5.33912	3.0864276	67.3497	66.9687	7.187799	31.65297
1007	5.33907	3.0864705	67.1612	66.7814	7.187778	31.65360
1008	5.33952	3.0864704	66.9816	66.6029	7.187716	31.65326
1009	5.34002	3.0864581	66.7871	66.4094	7.187654	31.65274
1010	5.34052	3.0864703	66.5985	66.2220	7.187579	31.65250
1011	5.34122	3.0864273	66.4160	66.0405	7.187508	31.65144
1012	5.34192	3.0865254	66.2244	65.8500	7.187361	31.65199
1013	5.34257	3.0864087	66.0177	65.6445	7.187335	31.65015
1014	5.34306	3.0864271	65.8231	65.4510	7.187256	31.64998
1015	5.34371	3.0873167	65.6191	65.2483	7.186692	31.65956
1016	5.34471	3.0872860	65.4276	65.0578	7.186575	31.65836
1017	5.34546	3.0872000	65.2299	64.8613	7.186520	31.65677
1018	5.34586	3.0872306	65.0354	64.6679	7.186448	31.65683
1019	5.34661	3.0874453	64.8407	64.4744	7.186232	31.65866
1020	5.34771	3.0874330	64.6431	64.2779	7.186093	31.65757
1021	5.34876	3.0875495	64.4485	64.0844	7.185891	31.65800
1022	5.34951	3.0873531	64.2538	63.8909	7.185895	31.65516
1023	5.34961	3.0873162	64.0500	63.6882	7.185897	31.65474
1024	5.34906	3.0871995	63.8523	63.4917	7.186026	31.65404
1025	5.34836	3.0871995	63.6547	63.2953	7.186111	31.65479
1026	5.34781	3.0872608	63.4599	63.1016	7.186145	31.65610
1027	5.34766	3.0871994	63.2563	62.8991	7.186192	31.65564
1028	5.34731	3.0870827	63.0524	62.6964	7.186295	31.65475
1029	5.34696	3.0870213	62.8517	62.4969	7.186368	31.65448
1030	5.34621	3.0869783	62.6390	62.2855	7.186483	31.65480
1031	5.34586	3.0870519	62.4320	62.0796	7.186484	31.65607
1032	5.34566	3.0870150	62.2161	61.8650	7.186524	31.65594
1033	5.34576	3.0871684	62.0001	61.6503	7.186424	31.65769
1034	5.34606	3.0872296	61.7903	61.4416	7.186348	31.65821
1035	5.34676	3.0873523	61.5773	61.2299	7.186188	31.65904
1036	5.34766	3.0872295	61.3615	61.0154	7.186133	31.65690
1037	5.34821	3.0871988	61.1425	60.7976	7.186074	31.65614
1038	5.34901	3.0872600	60.9325	60.5888	7.185933	31.65619
1039	5.35016	3.0871127	60.7228	60.3803	7.185859	31.65353
1040	5.35056	3.0871679	60.5129	60.1716	7.185773	31.65388
1041	5.35106	3.0870205	60.3000	59.9600	7.185783	31.65184
1042	5.35161	3.0869652	60.0840	59.7452	7.185737	31.65080
1043	5.35266	3.0870143	59.8742	59.5366	7.185571	31.65047
1044	5.35410	3.0867565	59.6643	59.3279	7.185518	31.64628
1045	5.35530	3.0867564	59.4514	59.1162	7.185359	31.64525
1046	5.35675	3.0865477	59.2293	58.8955	7.185279	31.64162
1047	5.35845	3.0865845	59.0164	58.6838	7.185036	31.64054
1048	5.36055	3.0863942	58.8096	58.4782	7.184863	31.63650
1049	5.36280	3.0864677	58.5968	58.2666	7.184529	31.63531
1050	5.36490	3.0863511	58.3930	58.0640	7.184317	31.63211
1051	5.36715	3.0864553	58.1710	57.8433	7.183967	31.63128
1052	5.36950	3.0865227	57.9704	57.6438	7.183624	31.62992
1053	5.37159	3.0864919	57.7603	57.4350	7.183365	31.62769
1054	5.37329	3.0864550	57.5445	57.2204	7.183162	31.62578
1055	5.37469	3.0866697	57.3407	57.0178	7.182862	31.62699
1056	5.37644	3.0868230	57.1278	56.8061	7.182550	31.62718
1057	5.37874	3.0870806	56.9148	56.5943	7.182112	31.62803
1058	5.38184	3.0873137	56.7079	56.3887	7.181584	31.62785
1059	5.38624	3.0875652	56.4980	56.1799	7.180879	31.62665
1060	5.39244	3.0879271	56.2851	55.9683	7.179884	31.62501
1061	5.39914	3.0881908	56.0754	55.7598	7.178877	31.62178
1062	5.40640	3.0886817	55.8685	55.5541	7.177678	31.62060
1063	5.41510	3.0890743	55.6557	55.3425	7.176345	31.61695
1064	5.42371	3.0894240	55.4489	55.1368	7.175049	31.61289
1065	5.43251	3.0899210	55.2360	54.9252	7.173648	31.61032
1066	5.44188	3.0905960	55.0261	54.7165	7.172082	31.60925
1067	5.45294	3.0911238	54.8192	54.5108	7.170376	31.60490
1068	5.46496	3.0917437	54.6065	54.2993	7.168500	31.60070
1069	5.47799	3.0923881	54.3965	54.0905	7.166483	31.59583
1070	5.49167	3.0927993	54.1867	53.8820	7.164506	31.58771
1071	5.50335	3.0932658	53.9769	53.6733	7.162758	31.58210
1072	5.51327	3.0935911	53.7671	53.4647	7.161309	31.57654
1073	5.52170	3.0939778	53.5570	53.2559	7.160021	31.57309
1074	5.52942	3.0942663	53.3471	53.0472	7.158874	31.56919
1075	5.53665	3.0946285	53.1374	52.8387	7.157753	31.56660
1076	5.54382	3.0950890	52.9305	52.6330	7.156586	31.56516
1077	5.55241	3.0959979	52.7117	52.4154	7.155003	31.56746
1078	5.56235	3.0972325	52.5078	52.2127	7.153074	31.57215
1079	5.57389	3.0977361	52.3010	52.0071	7.151328	31.56709
1080	5.58524	3.0980862	52.0850	51.7923	7.149688	31.56048
1081	5.59494	3.0984731	51.8751	51.5836	7.148241	31.55585
1082	5.60434	3.0988539	51.6652	51.3750	7.146836	31.55143
1083	5.61399	3.0992347	51.4521	51.1631	7.145399	31.54678
1084	5.62394	3.0994988	51.2455	50.9577	7.143985	31.54052
1085	5.63370	3.0996769	51.0326	50.7459	7.142642	31.53349
1086	5.64219	3.1001745	50.8196	50.5342	7.141292	31.53123
1087	5.65276	3.1005247	50.6128	50.3286	7.139756	31.52538
1088	5.66509	3.1008809	50.4062	50.1232	7.137993	31.51795
1089	5.67923	3.1015876	50.1962	49.9144	7.135816	31.51277
1090	5.69514	3.1024541	49.9894	49.7087	7.133330	31.50773
1091	5.71171	3.1030625	49.7794	49.4999	7.130898	31.49917
1092	5.72769	3.1038001	49.5666	49.2884	7.128475	31.49264
1093	5.74331	3.1044455	49.3629	49.0858	7.126146	31.48539
1094	5.75733	3.1048326	49.1499	48.8741	7.124158	31.47675
1095	5.76964	3.1052752	48.9339	48.6593	7.122358	31.47034
1096	5.78034	3.1055026	48.7272	48.4538	7.120877	31.46301
1097	5.78836	3.1056562	48.5171	48.2449	7.119774	31.45736
1098	5.79411	3.1057176	48.3166	48.0455	7.119007	31.45278
1099	5.79795	3.1058097	48.0976	47.8278	7.118467	31.45034
1100	5.80052	3.1058342	47.8937	47.6251	7.118123	31.44831
1101	5.80199	3.1058649	47.6900	47.4225	7.117917	31.44739
1102	5.80330	3.1060001	47.4711	47.2049	7.117675	31.44779
1103	5.80456	3.1061292	47.2672	47.0021	7.117443	31.44815
1104	5.80623	3.1062152	47.0603	46.7964	7.117182	31.44766
1105	5.80785	3.1062459	46.8474	46.5848	7.116956	31.44660
1106	5.80911	3.1063073	46.6314	46.3700	7.116759	31.44622
1107	5.81047	3.1063626	46.4215	46.1613	7.116553	31.44567
1108	5.81183	3.1064363	46.2179	45.9588	7.116337	31.44532
1109	5.81335	3.1065716	46.0049	45.7471	7.116070	31.44553
1110	5.81476	3.1066576	45.7951	45.5385	7.115841	31.44527
1111	5.81628	3.1067129	45.5882	45.3327	7.115615	31.44458
1112	5.81749	3.1067743	45.3721	45.1179	7.115425	31.44424
1113	5.81880	3.1068665	45.1624	44.9093	7.115206	31.44415
1114	5.82002	3.1069033	44.9525	44.7006	7.115028	31.44354
1115	5.82082	3.1069217	44.7488	44.4981	7.114912	31.44309
1116	5.82153	3.1069831	44.5358	44.2863	7.114785	31.44322
1117	5.82234	3.1069954	44.3258	44.0776	7.114672	31.44270
1118	5.82290	3.1069830	44.1161	43.8691	7.114603	31.44215
1119	5.82315	3.1069214	43.9091	43.6632	7.114598	31.44132
1120	5.82320	3.1069337	43.7022	43.4576	7.114581	31.44151
1121	5.82315	3.1070136	43.4955	43.2520	7.114541	31.44255
1122	5.82330	3.1069827	43.2916	43.0493	7.114534	31.44216
1123	5.82335	3.1069950	43.0759	42.8348	7.114516	31.44235
1124	5.82375	3.1070687	42.8690	42.6290	7.114422	31.44290
1125	5.82471	3.1073947	42.6560	42.4173	7.114125	31.44576
1126	5.82754	3.1078067	42.4521	42.2146	7.113548	31.44783
1127	5.83310	3.1084894	42.2394	42.0030	7.112483	31.45040
1128	5.84230	3.1089015	42.0265	41.7913	7.111098	31.44655
1129	5.85342	3.1098488	41.8197	41.5858	7.109193	31.44690
1130	5.87005	3.1106423	41.6067	41.3740	7.106670	31.44040
1131	5.88887	3.1111467	41.4029	41.1714	7.104023	31.42864
1132	5.90637	3.1115588	41.1899	40.9596	7.101591	31.41708
1133	5.92136	3.1119217	40.9833	40.7541	7.099505	31.40732
1134	5.93391	3.1121184	40.7611	40.5331	7.097812	31.39796
1135	5.94354	3.1122968	40.5634	40.3366	7.096499	31.39112
1136	5.95114	3.1124505	40.3536	40.1280	7.095456	31.38589
1137	5.95747	3.1126227	40.1436	39.9191	7.094563	31.38203
1138	5.96259	3.1127703	39.9338	39.7106	7.093836	31.37903
1139	5.96710	3.1129487	39.7270	39.5049	7.093169	31.37694
1140	5.97126	3.1130963	39.5232	39.3023	7.092564	31.37483
1141	5.97557	3.1132748	39.3104	39.0907	7.091924	31.37293
1142	5.97982	3.1133547	39.1033	38.8848	7.091341	31.36997
1143	5.98373	3.1134777	38.8722	38.6550	7.090780	31.36784
1144	5.98768	3.1136007	38.6653	38.4492	7.090213	31.36564
1145	5.99154	3.1137175	38.4585	38.2437	7.089662	31.36347
1146	5.99458	3.1138221	38.2517	38.0381	7.089220	31.36192
1147	5.99762	3.1139267	38.0357	37.8232	7.088777	31.36037
1148	6.00051	3.1140435	37.8319	37.6207	7.088348	31.35909
1149	6.00376	3.1139757	37.6220	37.4119	7.087969	31.35543
1150	6.00772	3.1139264	37.4060	37.1972	7.087491	31.35132
1151	6.01137	3.1138955	37.1993	36.9916	7.087042	31.34769
1152	6.01477	3.1138215	36.9833	36.7768	7.086647	31.34382
1153	6.01736	3.1137476	36.7855	36.5802	7.086355	31.34070
1154	6.01924	3.1136859	36.5665	36.3624	7.086145	31.33838
1155	6.02045	3.1136982	36.3567	36.1538	7.085981	31.33749
1156	6.02132	3.1136858	36.1498	35.9480	7.085874	31.33665
1157	6.02218	3.1136549	35.9369	35.7363	7.085776	31.33561
1158	6.02304	3.1137472	35.7270	35.5277	7.085616	31.33594
1159	6.02431	3.1138518	35.5170	35.3189	7.085397	31.33603
1160	6.02604	3.1138948	35.3071	35.1101	7.085153	31.33501
1161	6.02827	3.1140117	35.1034	34.9076	7.084807	31.33434
1162	6.03086	3.1141963	34.8906	34.6960	7.084381	31.33411
1163	6.03436	3.1144239	34.6837	34.4902	7.083818	31.33350
1164	6.04127	3.1150456	34.4830	34.2907	7.082624	31.33413
1165	6.05254	3.1155380	34.2791	34.0879	7.080947	31.32929
1166	6.06585	3.1164676	34.0632	33.8733	7.078789	31.32743
1167	6.08256	3.1174466	33.8563	33.6676	7.076178	31.32297
1168	6.10107	3.1182593	33.6465	33.4589	7.073431	31.31502
1169	6.12024	3.1194602	33.4364	33.2500	7.070401	31.31076
1170	6.14329	3.1204086	33.2236	33.0384	7.067017	31.30014
1171	6.16620	3.1210306	33.0166	32.8326	7.063821	31.28602
1172	6.18622	3.1215418	32.8098	32.6270	7.061046	31.27335
1173	6.20375	3.1220406	32.5999	32.4183	7.058590	31.26285
1174	6.21996	3.1226936	32.3900	32.2095	7.056222	31.25527
1175	6.23659	3.1233590	32.1742	31.9949	7.053797	31.24746
1176	6.25327	3.1238210	31.9642	31.7861	7.051470	31.23734
1177	6.26879	3.1240858	31.7542	31.5774	7.049391	31.22613
1178	6.28145	3.1241472	31.5414	31.3657	7.047772	31.21529
1179	6.29146	3.1238636	31.3406	31.1661	7.046661	31.20307
1180	6.30019	3.1240298	31.1246	30.9513	7.045481	31.19700
1181	6.30970	3.1246214	30.9147	30.7426	7.043989	31.19492
1182	6.32140	3.1249911	30.7048	30.5339	7.042335	31.18838
1183	6.33403	3.1260204	30.4981	30.3283	7.040233	31.18828
1184	6.34901	3.1268217	30.2913	30.1227	7.037953	31.18350
1185	6.36349	3.1274442	30.0813	29.9138	7.035828	31.17722
1186	6.37730	3.1282210	29.8684	29.7022	7.033709	31.17324
1187	6.39220	3.1286648	29.6584	29.4934	7.031624	31.16461
1188	6.40628	3.1290470	29.4545	29.2906	7.029673	31.15605
1189	6.41996	3.1296450	29.2509	29.0881	7.027665	31.15024
1190	6.43549	3.1297250	29.0410	28.8794	7.025688	31.13704
1191	6.44774	3.1294657	28.8311	28.6707	7.024290	31.12311
1192	6.45758	3.1293176	28.6181	28.4589	7.023136	31.11260
1193	6.46702	3.1294099	28.3838	28.2259	7.021911	31.10512
1194	6.47728	3.1307482	28.1647	28.0081	7.019958	31.11059
1195	6.49821	3.1346475	27.9427	27.7873	7.015394	31.13447
1196	6.53257	3.1376902	27.7359	27.5816	7.009603	31.13668
1197	6.57826	3.1420063	27.5261	27.3731	7.001781	31.14251
1198	6.62952	3.1420798	27.3161	27.1642	6.995405	31.09680
1199	6.66965	3.1460584	27.1000	26.9493	6.988466	31.10399
1200	6.71137	3.1476154	26.8872	26.7377	6.982547	31.08325
1201	6.74977	3.1505516	26.6803	26.5320	6.976361	31.08059
1202	6.78837	3.1522456	26.4735	26.3264	6.970775	31.06422
1203	6.82332	3.1543297	26.2637	26.1178	6.965451	31.05540
1204	6.85728	3.1561297	26.0476	25.9029	6.960398	31.04441
1205	6.89011	3.1574226	25.8408	25.6973	6.955736	31.02891
1206	6.91899	3.1582639	25.6339	25.4915	6.951786	31.01210
1207	6.94383	3.1591054	25.4270	25.2858	6.948332	30.99894
1208	6.96495	3.1595570	25.2262	25.0861	6.945526	30.98491
1209	6.98219	3.1599158	25.0103	24.8714	6.943241	30.97339
1210	6.99606	3.1603984	24.8035	24.6657	6.941308	30.96624
1211	7.00775	3.1608502	24.5996	24.4630	6.939657	30.96072
1212	7.01877	3.1618221	24.3805	24.2451	6.937834	30.96145
1213	7.03146	3.1623544	24.1767	24.0425	6.936024	30.95591
1214	7.04446	3.1634070	23.9639	23.8308	6.933922	30.95573
1215	7.05892	3.1644039	23.7508	23.6190	6.931671	30.95363
1216	7.07370	3.1651841	23.5348	23.4042	6.929488	30.94890
1217	7.08765	3.1658901	23.3312	23.2017	6.927443	30.94411
1218	7.09994	3.1666334	23.1242	22.9959	6.925583	30.94122
1219	7.11202	3.1673890	22.9173	22.7901	6.923743	30.93864
1220	7.12370	3.1679589	22.6984	22.5725	6.922044	30.93444
1221	7.13422	3.1682004	22.4885	22.3638	6.920644	30.92771
1222	7.14215	3.1685659	22.2845	22.1608	6.919500	30.92465
1223	7.14877	3.1688198	22.0808	21.9583	6.918569	30.92155
1224	7.15461	3.1695014	21.8557	21.7345	6.917525	30.92378
1225	7.16332	3.1707347	21.6548	21.5348	6.915867	30.92938
1226	7.17678	3.1718813	21.4449	21.3260	6.913676	30.92980
1227	7.19479	3.1734248	21.2412	21.1234	6.910743	30.93042
1228	7.21750	3.1752415	21.0312	20.9146	6.907111	30.92977
1229	7.24551	3.1761838	20.8122	20.6968	6.903264	30.91498
1230	7.27123	3.1773869	20.6054	20.4912	6.899571	30.90503
1231	7.29713	3.1790245	20.3954	20.2823	6.895651	30.89962
1232	7.32650	3.1805382	20.1885	20.0766	6.891376	30.88977
1233	7.35762	3.1815680	19.9787	19.8680	6.887127	30.87318
1234	7.38656	3.1831132	19.7717	19.6622	6.882898	30.86408
1235	7.41794	3.1848512	19.5618	19.4534	6.878288	30.85488
1236	7.45112	3.1861486	19.3489	19.2417	6.873676	30.83937
1237	7.48350	3.1871170	19.1298	19.0239	6.869324	30.82108
1238	7.51090	3.1879676	18.9229	18.8181	6.865629	30.80595
1239	7.53453	3.1888183	18.7161	18.6124	6.862388	30.79419
1240	7.55517	3.1896691	18.5033	18.4008	6.859508	30.78508
1241	7.57397	3.1901285	18.2963	18.1950	6.857035	30.77343
1242	7.58836	3.1903396	18.0863	17.9862	6.855209	30.76304
1243	7.59848	3.1905817	17.8644	17.7655	6.853879	30.75677
1244	7.60676	3.1914266	17.6453	17.5477	6.852486	30.75856
1245	7.61810	3.1925015	17.4384	17.3419	6.850618	30.76009
1246	7.63461	3.1938065	17.2284	17.1331	6.848025	30.75950
1247	7.65631	3.1946018	17.0217	16.9275	6.845056	30.74890
1248	7.68034	3.1970697	16.8057	16.7127	6.841023	30.75405
1249	7.71913	3.2003282	16.5956	16.5038	6.834865	30.75457
1250	7.77221	3.2030775	16.3918	16.3011	6.827259	30.73708
1251	7.83187	3.2061949	16.1820	16.0925	6.818714	30.71772
1252	7.89434	3.2083670	15.9781	15.8898	6.810297	30.68592
1253	7.95302	3.2108137	15.7651	15.6779	6.802217	30.66042
1254	8.00933	3.2128562	15.5582	15.4721	6.794619	30.63277
1255	8.06151	3.2142761	15.3453	15.2604	6.787809	30.60223
1256	8.10526	3.2151666	15.1355	15.0518	6.782243	30.57352
1257	8.13918	3.2160885	14.9255	14.8429	6.777827	30.55376
1258	8.16730	3.2176838	14.7156	14.6342	6.773788	30.54614
1259	8.20009	3.2201709	14.5087	14.4285	6.768797	30.54383
1260	8.24357	3.2232761	14.3018	14.2228	6.762279	30.53871
1261	8.30105	3.2256772	14.0889	14.0110	6.754457	30.51408
1262	8.36290	3.2277420	13.8760	13.7993	6.746292	30.48218
1263	8.42249	3.2296825	13.6629	13.5874	6.738463	30.45101
1264	8.48044	3.2312862	13.4531	13.3788	6.730992	30.41782
1265	8.53130	3.2325781	13.2402	13.1671	6.724497	30.38756
1266	8.57217	3.2335393	13.0270	12.9550	6.719318	30.36251
1267	8.60638	3.2358562	12.8140	12.7432	6.714311	30.35729
1268	8.64349	3.2391297	12.6104	12.5408	6.708548	30.35951
1269	8.68957	3.2417605	12.4034	12.3349	6.702045	30.34736
1270	8.73853	3.2445485	12.1995	12.1322	6.695152	30.33439
1271	8.79086	3.2488012	11.9897	11.9235	6.687234	30.33369
1272	8.86246	3.2546710	11.7859	11.7208	6.676407	30.33319
1273	8.96371	3.2598679	11.5850	11.5211	6.662520	30.30046
1274	9.08425	3.2657949	11.3752	11.3124	6.646164	30.25892
1275	9.22044	3.2670160	11.1712	11.1095	6.630143	30.15618
1276	9.34789	3.2736444	10.9551	10.8946	6.612838	30.11647
1277	9.47024	3.2760529	10.7393	10.6800	6.597992	30.03832
1278	9.57734	3.2787950	10.5354	10.4773	6.584768	29.97666
1279	9.66891	3.2803198	10.3284	10.2714	6.573842	29.91588
1280	9.74114	3.2820775	10.1185	10.0626	6.565007	29.87371
1281	9.80237	3.2834587	9.9118	9.8571	6.557579	29.83698
1282	9.85481	3.2862854	9.7017	9.6482	6.550539	29.82212
1283	9.91554	3.2889936	9.4980	9.4456	6.542639	29.79924
1284	9.98118	3.2908789	9.2879	9.2367	6.534551	29.76413
1285	10.04324	3.2925508	9.0750	9.0250	6.526967	29.72992
1286	10.10241	3.2942482	8.8834	8.8344	6.519705	29.69839
1287	10.15926	3.2954050	8.6643	8.6165	6.512936	29.66347
1288	10.20509	3.2966186	8.4574	8.4108	6.507370	29.63818
1289	10.24658	3.2977192	8.2566	8.2111	6.502338	29.61535
1290	10.28535	3.2988263	8.0498	8.0054	6.497608	29.59484
1291	10.32506	3.2998706	7.8366	7.7934	6.492806	29.57297
1292	10.36407	3.3005625	7.6267	7.5847	6.488230	29.54820
1293	10.40092	3.3014496	7.4262	7.3852	6.483818	29.52717
1294	10.43270	3.3028154	7.2252	7.1854	6.479772	29.51500
1295	10.47104	3.3042316	7.0062	6.9676	6.474991	29.49805
1296	10.51742	3.3061646	6.7962	6.7587	6.469127	29.47972
1297	10.57426	3.3090744	6.5893	6.5530	6.461736	29.46260
1298	10.65131	3.3131070	6.3825	6.3473	6.451707	29.44028
1299	10.74846	3.3161827	6.1787	6.1447	6.439905	29.39247
1300	10.84706	3.3186034	5.9686	5.9358	6.428241	29.33725
1301	10.94212	3.3212710	5.7586	5.7269	6.416895	29.28747
1302	11.04215	3.3223867	5.5488	5.5182	6.405657	29.21881
1303	11.12882	3.3247715	5.3449	5.3154	6.395388	29.17334
1304	11.21043	3.3261088	5.1319	5.1036	6.386097	29.12187
1305	11.28850	3.3274338	4.9372	4.9100	6.377211	29.07322
1306	11.36645	3.3309002	4.7302	4.7042	6.367529	29.04551
1307	11.46523	3.3343171	4.5234	4.4985	6.355671	29.00106
1308	11.57193	3.3357569	4.3044	4.2807	6.343767	28.93160
1309	11.65914	3.3365965	4.0915	4.0689	6.334190	28.87184
1310	11.71328	3.3345986	3.8814	3.8600	6.329211	28.81076
1311	11.71305	3.3323617	3.6715	3.6513	6.330082	28.78962
1312	11.67712	3.3311807	3.4555	3.4365	6.334337	28.80623
1313	11.63379	3.3305810	3.2425	3.2246	6.339159	28.83419
1314	11.59162	3.3301897	3.0326	3.0159	6.343785	28.86328
1315	11.55954	3.3312133	2.8196	2.8041	6.346800	28.89817
1316	11.55698	3.3328433	2.6066	2.5923	6.346446	28.91591
1317	11.58204	3.3341193	2.4028	2.3896	6.343291	28.90871
1318	11.61659	3.3356230	2.2170	2.2048	6.339046	28.89630
1319	11.65129	3.3361661	2.0529	2.0416	6.335156	28.87458
1320	11.68016	3.3368421	1.9008	1.8903	6.331836	28.85868
1321	11.70894	3.3380555	1.7547	1.7450	6.328325	28.84801
1322	11.74725	3.3399392	1.6118	1.6029	6.323556	28.83637
1323	11.79477	3.3411339	1.4688	1.4607	6.318082	28.81103
1324	11.84346	3.3428916	1.3349	1.3275	6.312279	28.79020
1325	11.89688	3.3431187	1.1981	1.1915	6.306564	28.75118
1326	11.93946	3.3436243	1.0671	1.0613	6.301892	28.72324
1327	11.97003	3.3440794	0.9395	0.9343	6.298505	28.70409
1328	11.99159	3.3443069	0.8087	0.8043	6.296152	28.68973
1329	12.00589	3.3445598	0.6718	0.6681	6.294554	28.68120
1330	12.01671	3.3450531	0.5411	0.5381	6.293232	28.67763
1331	12.03162	3.3461666	0.4133	0.4110	6.291250	28.67681
1332	12.05960	3.3467738	0.2916	0.2900	6.288086	28.66115
1333	12.09715	3.3471594	0.1607	0.1598	6.284007	28.63608
1334	12.13937	3.3439571	0.0757	0.0753	6.280777	28.57352
1335	12.16613	3.3397824	0.0758	0.0754	6.279525	28.51363
1336	12.15735	3.3449755	0.0758	0.0754	6.278517	28.56943
1337	12.11150	3.3427934	0.0729	0.0725	6.284128	28.58379
1338	12.06197	3.3413961	0.0698	0.0694	6.289841	28.60842
1339	12.01949	3.3391707	0.0701	0.0697	6.295133	28.61983
1340	11.98190	3.3398476	0.0671	0.0667	6.298830	28.65508
1341	11.93715	3.3352080	0.0731	0.0727	6.305280	28.64532
1342	11.89063	3.3315816	0.0733	0.0729	6.311548	28.64654
1343	11.82811	1.2626647	0.0733	0.0729	7.106085	9.94157
1344	11.76281	0.4881273	0.0794	0.0790	7.405666	3.58908
1345	11.72302	0.4887540	0.0676	0.0672	7.411963	3.59782
1346	11.70349	0.5419352	0.0766	0.0761	7.395682	4.01920
1347	11.69048	0.5286327	0.0707	0.0703	7.402693	3.91530
1348	11.67923	0.5117758	0.0799	0.0795	7.410721	3.78331
1349	11.66786	0.4463049	0.0677	0.0673	7.436523	3.27058
1350	11.65387	0.4318527	0.0742	0.0738	7.444100	3.15910
1351	11.63812	0.4250400	0.0742	0.0738	7.449190	3.10738
1352	11.62349	0.5212917	0.0741	0.0736	7.416363	3.86420
1353	11.60875	0.4832340	0.0711	0.0707	7.432781	3.56537
1354	11.59489	0.4613117	0.0712	0.0708	7.443110	3.39448
1355	11.57999	0.4083875	0.0713	0.0709	7.464917	2.98263
1356	11.56451	0.3593932	0.0745	0.0741	7.485290	2.60487
1357	11.54874	0.3240415	0.0745	0.0741	7.500698	2.33479
1358	11.53292	0.3042790	0.0747	0.0743	7.510471	2.18506
1359	11.51659	0.2944340	0.0686	0.0682	7.516768	2.11116
1360	11.49979	0.2869642	0.0689	0.0685	7.522293	2.05541
1361	11.48353	0.3289463	0.0718	0.0714	7.509934	2.37642
1362	11.46733	0.3496272	0.0718	0.0714	7.505173	2.53636
1363	11.45125	0.3337678	0.0749	0.0745	7.513642	2.41548
1364	11.43507	0.3338103	0.0751	0.0747	7.516363	2.41685
1365	11.41860	0.3103304	0.0751	0.0747	7.527659	2.23796
1366	11.40266	0.2984335	0.0631	0.0628	7.534667	2.14808
1367	11.38714	0.2820689	0.0754	0.0749	7.543213	2.02440
1368	11.37139	0.2544747	0.0724	0.0720	7.555821	1.81629
1369	11.35558	0.2365163	0.0724	0.0720	7.564956	1.68185
1370	11.33967	0.2270977	0.0756	0.0752	7.571052	1.61191
1371	11.32400	0.2148401	0.0726	0.0722	7.578118	1.52089
1372	11.30822	0.2020661	0.0727	0.0723	7.585380	1.42631
1373	11.29273	0.2009187	0.0697	0.0693	7.588463	1.41836
1374	11.27778	0.1938577	0.0697	0.0694	7.593556	1.36644
1375	11.26323	0.1817008	0.0759	0.0755	7.600382	1.27687
1376	11.24863	0.1748273	0.0670	0.0666	7.605344	1.22658
1377	11.23445	0.1701383	0.0700	0.0697	7.609465	1.19246
1378	11.22038	0.1688828	0.0731	0.0727	7.612354	1.18365
1379	11.20626	0.2476891	0.0763	0.0758	7.586633	1.77297
1380	11.19192	0.2566846	0.0764	0.0760	7.585852	1.84180
1381	11.17741	0.2629803	0.0734	0.0730	7.586069	1.89034
1382	11.16313	0.2443405	0.0734	0.0730	7.595290	1.74967
1383	11.14921	0.2269483	0.0704	0.0700	7.603982	1.61903
1384	11.13581	0.2135586	0.0734	0.0730	7.611128	1.51896
1385	11.12265	0.2041739	0.0766	0.0762	7.616787	1.44918
1386	11.11001	0.1963783	0.0768	0.0764	7.621783	1.39140
1387	11.09743	0.1896180	0.0769	0.0764	7.626396	1.34145
1388	11.08474	0.1840486	0.0708	0.0704	7.630602	1.30044
1389	11.07212	0.1791486	0.0800	0.0795	7.634560	1.26446
1390	11.05892	0.1748141	0.0708	0.0704	7.638416	1.23273
1391	11.04676	0.1711154	0.0711	0.0707	7.641864	1.20570
1392	11.03536	0.1674057	0.0709	0.0706	7.645186	1.17859
1393	11.02298	0.1639932	0.0709	0.0706	7.648573	1.15373
1394	11.01072	0.1607179	0.0711	0.0707	7.651893	1.12990
1395	10.99904	0.1578105	0.0742	0.0738	7.654980	1.10878
1396	10.98799	0.1552137	0.0713	0.0709	7.657847	1.08994
1397	10.97678	0.1527649	0.0744	0.0740	7.660692	1.07221
