Scan Count	Temperature [ITS-90, deg C]	Conductivity [S/m]	Pressure, Strain Gauge [db]	Depth [salt water, m]	Oxygen Saturation, Weiss [ml/l]	Salinity, Practical [PSU]
1	8.91584	0.0037925	-0.0109	-0.0109	8.096063	0.02690
2	8.90695	0.0037832	-0.0230	-0.0228	8.097795	0.02684
3	8.87907	0.0038048	-0.0200	-0.0199	8.103223	0.02699
4	8.86236	0.0037956	-0.0139	-0.0139	8.106485	0.02694
5	8.83994	0.0038048	-0.0109	-0.0109	8.110858	0.02700
6	8.81678	0.0038048	-0.0170	-0.0169	8.115385	0.02701
7	8.81134	0.0038203	-0.0138	-0.0137	8.116442	0.02711
8	8.81341	0.0038326	-0.0139	-0.0139	8.116034	0.02719
9	8.81770	0.0038481	-0.0139	-0.0139	8.115189	0.02729
10	8.81857	0.0038759	-0.0170	-0.0169	8.115010	0.02747
11	8.81075	0.0038851	-0.0201	-0.0200	8.116537	0.02753
12	8.80955	0.0039160	-0.0108	-0.0108	8.116761	0.02773
13	8.80374	0.0040180	-0.0200	-0.0199	8.117863	0.02840
14	8.80205	0.0040643	-0.0170	-0.0169	8.118177	0.02870
15	8.78918	0.0041322	-0.0139	-0.0138	8.120673	0.02915
16	8.78510	0.0041631	-0.0172	-0.0171	8.121460	0.02935
17	8.79233	0.0042095	-0.0200	-0.0199	8.120031	0.02966
18	8.80129	0.0042434	-0.0169	-0.0168	8.118265	0.02988
19	8.80917	0.0042743	-0.0110	-0.0109	8.116713	0.03008
20	8.81270	0.0043052	-0.0139	-0.0139	8.116012	0.03028
21	8.81673	0.0043392	-0.0140	-0.0139	8.115214	0.03050
22	8.81151	0.0043856	-0.0139	-0.0138	8.116218	0.03080
23	8.81058	0.0044288	-0.0139	-0.0138	8.116384	0.03109
24	8.80417	0.0044473	-0.0200	-0.0199	8.117632	0.03121
25	8.79406	0.0044844	-0.0199	-0.0198	8.119596	0.03146
26	8.79564	0.0045369	-0.0170	-0.0169	8.119270	0.03180
27	8.79265	0.0045431	-0.0170	-0.0169	8.119853	0.03185
28	8.77853	0.0045647	-0.0170	-0.0169	8.122610	0.03199
29	8.76012	0.0045987	-0.0140	-0.0139	8.126203	0.03223
30	8.75101	0.0046358	-0.0170	-0.0169	8.127978	0.03247
31	8.75638	0.0046605	-0.0199	-0.0198	8.126916	0.03263
32	8.76734	0.0046945	-0.0169	-0.0168	8.124756	0.03285
33	8.78027	0.0047254	-0.0167	-0.0166	8.122214	0.03305
34	8.78293	0.0047409	-0.0169	-0.0168	8.121688	0.03315
35	8.76012	0.0047687	-0.0109	-0.0108	8.126145	0.03335
36	8.74200	0.0047903	-0.0076	-0.0076	8.129690	0.03350
37	8.73712	0.0047965	-0.0137	-0.0137	8.130646	0.03354
38	8.71336	0.0048397	-0.0139	-0.0138	8.135292	0.03384
39	8.69900	0.0048459	-0.0168	-0.0167	8.138111	0.03388
40	8.70290	0.0048583	-0.0167	-0.0166	8.137340	0.03396
41	8.70041	0.0048706	-0.0108	-0.0107	8.137826	0.03405
42	8.70577	0.0048675	-0.0078	-0.0078	8.136773	0.03402
43	8.71380	0.0048954	-0.0107	-0.0106	8.135188	0.03420
44	8.70870	0.0049015	-0.0137	-0.0137	8.136186	0.03425
45	8.69922	0.0049293	-0.0168	-0.0167	8.138040	0.03444
46	8.70068	0.0048459	-0.0137	-0.0136	8.137781	0.03388
47	8.71054	0.0049850	-0.0138	-0.0137	8.135796	0.03480
48	8.72345	0.0050035	-0.0137	-0.0136	8.133256	0.03492
49	8.73663	0.0050190	-0.0106	-0.0106	8.130665	0.03501
50	8.74932	0.0050375	-0.0167	-0.0166	8.128169	0.03513
51	8.75931	0.0050437	-0.0137	-0.0136	8.126210	0.03516
52	8.76637	0.0050560	-0.0137	-0.0137	8.124823	0.03524
53	8.77049	0.0050530	-0.0106	-0.0105	8.124016	0.03522
54	8.77381	0.0050560	-0.0106	-0.0105	8.123366	0.03524
55	8.76322	0.0050468	-0.0105	-0.0105	8.125443	0.03518
56	8.75844	0.0050684	-0.0135	-0.0134	8.126371	0.03533
57	8.75117	0.0050900	-0.0166	-0.0165	8.127789	0.03548
58	8.73701	0.0050993	-0.0105	-0.0105	8.130563	0.03554
59	8.72247	0.0051179	-0.0197	-0.0196	8.133408	0.03567
60	8.70691	0.0051797	-0.0136	-0.0135	8.136441	0.03609
61	8.68908	0.0052075	-0.0136	-0.0135	8.139934	0.03629
62	8.67251	0.0051889	-0.0074	-0.0073	8.143200	0.03617
63	8.66606	0.0051704	-0.0136	-0.0135	8.144474	0.03605
64	8.66509	0.0051704	-0.0166	-0.0165	8.144665	0.03605
65	8.62958	0.0051549	-0.0103	-0.0103	8.151661	0.03597
66	8.56790	0.0051457	-0.0134	-0.0134	8.163831	0.03594
67	8.51397	0.0051364	-0.0074	-0.0074	8.174498	0.03591
68	8.47429	0.0051148	-0.0166	-0.0165	8.182368	0.03578
69	8.44666	0.0051086	-0.0103	-0.0103	8.187853	0.03576
70	8.42335	0.0050993	-0.0165	-0.0164	8.192487	0.03571
71	8.42561	0.0050900	-0.0074	-0.0073	8.192041	0.03564
72	8.43346	0.0050746	-0.0166	-0.0165	8.190485	0.03554
73	8.44876	0.0050653	-0.0105	-0.0105	8.187452	0.03547
74	8.46977	0.0050715	-0.0134	-0.0134	8.183281	0.03550
75	8.48146	0.0050931	-0.0164	-0.0163	8.180955	0.03563
76	8.48044	0.0051179	-0.0104	-0.0103	8.181149	0.03580
77	8.47742	0.0051240	-0.0074	-0.0073	8.181745	0.03584
78	8.47424	0.1232066	0.0140	0.0140	8.136235	0.91638
79	8.39134	1.5154881	0.0871	0.0867	7.528132	13.31713
80	8.14206	3.0197225	0.2183	0.2171	6.867513	28.50159
81	7.94960	3.0813191	0.3402	0.3383	6.862457	29.30498
82	7.80986	3.1013869	0.4835	0.4808	6.870049	29.63422
83	7.71134	3.1145323	0.6389	0.6354	6.875825	29.85729
84	7.65280	3.1245546	0.7823	0.7780	6.878196	30.01389
85	7.62108	3.1318741	0.9164	0.9113	6.878581	30.11904
86	7.60284	3.0989680	1.0382	1.0325	6.896371	29.78488
87	7.59582	3.0833095	1.1601	1.1537	6.904648	29.62448
88	7.58871	3.0908988	1.2791	1.2721	6.901924	29.71112
89	7.59050	3.0926668	1.3766	1.3690	6.900868	29.72834
90	7.59219	3.1013648	1.4315	1.4236	6.896542	29.81931
91	7.60062	3.0990296	1.4285	1.4206	6.896620	29.78726
92	7.60938	3.1097150	1.4194	1.4116	6.890494	29.89332
93	7.61734	3.1217944	1.4194	1.4116	6.883811	30.01487
94	7.61750	3.1358973	1.4100	1.4022	6.877122	30.16473
95	7.61265	3.1388912	1.4040	1.3963	6.876293	30.20080
96	7.60816	3.1405522	1.3981	1.3904	6.876049	30.22238
97	7.60452	3.1508468	1.4042	1.3965	6.871619	30.33515
98	7.59994	3.1574838	1.4102	1.4025	6.869032	30.40986
99	7.59545	3.1614823	1.4255	1.4177	6.867681	30.45639
100	7.59319	3.1634575	1.4529	1.4449	6.867019	30.47942
101	7.59203	3.1636494	1.4590	1.4510	6.867068	30.48248
102	7.59282	3.1586535	1.4589	1.4509	6.869337	30.42853
103	7.59878	3.1555596	1.4317	1.4238	6.870083	30.39037
104	7.60484	3.1643429	1.4072	1.3995	6.865198	30.47867
105	7.60310	3.1664426	1.3889	1.3812	6.864414	30.50258
106	7.59582	3.1683509	1.3646	1.3571	6.864385	30.52932
107	7.59277	3.1665728	1.3706	1.3631	6.865594	30.51304
108	7.59640	3.1671799	1.3920	1.3844	6.864870	30.51631
109	7.59867	3.1668763	1.4195	1.4117	6.864742	30.51107
110	7.60025	3.1460564	1.4622	1.4542	6.874402	30.28783
111	7.60210	3.1335402	1.4684	1.4603	6.880102	30.15298
112	7.60410	3.1316647	1.4684	1.4603	6.880747	30.13128
113	7.61101	3.1390579	1.4469	1.4390	6.876413	30.20398
114	7.61618	3.1494989	1.4195	1.4117	6.870851	30.31063
115	7.61824	3.1591669	1.4012	1.3935	6.866033	30.41180
116	7.61497	3.1632900	1.4043	1.3966	6.864478	30.45858
117	7.61032	3.1668762	1.4014	1.3937	6.863341	30.50086
118	7.60800	3.1689270	1.4195	1.4117	6.862651	30.52474
119	7.60568	3.1686544	1.4349	1.4270	6.863059	30.52387
120	7.60542	3.1577375	1.4411	1.4332	6.868253	30.40776
121	7.60943	3.1483615	1.4409	1.4330	6.872204	30.30440
122	7.60916	3.1475209	1.4289	1.4211	6.872633	30.29568
123	7.61301	3.1531842	1.4136	1.4058	6.869490	30.35264
124	7.61618	3.1651293	1.4014	1.3937	6.863463	30.47711
125	7.61402	3.1693111	1.3952	1.3875	6.861747	30.52357
126	7.60906	3.1718585	1.3984	1.3907	6.861138	30.55507
127	7.60473	3.1729434	1.4167	1.4089	6.861144	30.57043
128	7.60321	3.1731542	1.4532	1.4452	6.861229	30.57401
129	7.60310	3.1654887	1.4654	1.4574	6.864867	30.49238
130	7.60642	3.1531410	1.4746	1.4665	6.870306	30.35790
131	7.60716	3.1446784	1.4716	1.4635	6.874220	30.26714
132	7.61317	3.1442582	1.4441	1.4362	6.873692	30.25745
133	7.61919	3.1551697	1.4137	1.4059	6.867808	30.36839
134	7.62240	3.1643737	1.3925	1.3848	6.863072	30.46361
135	7.62172	3.1690260	1.3772	1.3696	6.860956	30.51378
136	7.61686	3.1714927	1.3802	1.3726	6.860373	30.54432
137	7.61259	3.1734268	1.4046	1.3969	6.859973	30.56868
138	7.61027	3.1716725	1.4289	1.4211	6.861081	30.55201
139	7.61154	3.1588019	1.4656	1.4576	6.867013	30.41374
140	7.61296	3.1516258	1.4869	1.4787	6.870235	30.33606
141	7.61407	3.1480772	1.4930	1.4848	6.871779	30.29730
142	7.61803	3.1487200	1.4809	1.4728	6.870998	30.30071
143	7.62177	3.1550459	1.4535	1.4455	6.867556	30.36480
144	7.62193	3.1603058	1.4138	1.4060	6.865051	30.42069
145	7.62251	3.1643737	1.3864	1.3788	6.863059	30.46352
146	7.62124	3.1669380	1.3742	1.3666	6.861999	30.49195
147	7.61660	3.1691686	1.3712	1.3637	6.861503	30.51979
148	7.61280	3.1705878	1.3957	1.3880	6.861289	30.53824
149	7.61159	3.1689580	1.4200	1.4122	6.862205	30.52192
150	7.61607	3.1608506	1.4446	1.4366	6.865499	30.43160
151	7.62135	3.1566916	1.4688	1.4607	6.866830	30.38269
152	7.62177	3.1534872	1.4688	1.4607	6.868293	30.34820
153	7.62942	3.1522873	1.4690	1.4609	6.867938	30.32875
154	7.63623	3.1515081	1.4628	1.4548	6.867486	30.31453
155	7.63997	3.1513287	1.4384	1.4305	6.867119	30.30937
156	7.64008	3.1516502	1.4142	1.4064	6.866954	30.31271
157	7.64019	3.1529180	1.3928	1.3851	6.866342	30.32612
158	7.64235	3.1553488	1.3867	1.3791	6.864934	30.35010
159	7.64467	3.1581703	1.3928	1.3852	6.863323	30.37809
160	7.64689	3.1602808	1.3959	1.3883	6.862061	30.39862
161	7.65006	3.1612279	1.4263	1.4185	6.861234	30.40592
162	7.65307	3.1591047	1.4538	1.4458	6.861874	30.38068
163	7.65555	3.1539693	1.4720	1.4639	6.863998	30.32388
164	7.65798	3.1522561	1.4935	1.4853	6.864514	30.30353
165	7.66827	3.1516252	1.4751	1.4670	6.863571	30.28787
166	7.67810	3.1509264	1.4446	1.4367	6.862717	30.27191
167	7.67630	3.1507595	1.4112	1.4035	6.863012	30.27172
168	7.67282	3.1512047	1.3929	1.3852	6.863221	30.27949
169	7.67187	3.1528867	1.3716	1.3640	6.862543	30.29820
170	7.66817	3.1554847	1.3717	1.3641	6.861763	30.32904
171	7.66331	3.1574522	1.3869	1.3793	6.861420	30.35420
172	7.65893	3.1591046	1.4083	1.4005	6.861168	30.37559
173	7.65750	3.1585353	1.4387	1.4308	6.861609	30.37076
174	7.65940	3.1538455	1.4755	1.4674	6.863593	30.31920
175	7.66336	3.1514954	1.4845	1.4763	6.864224	30.29076
176	7.67614	3.1495601	1.4814	1.4733	6.863597	30.25907
177	7.67836	3.1491953	1.4540	1.4460	6.863501	30.25328
178	7.66743	3.1491089	1.4145	1.4068	6.864858	30.26188
179	7.65296	3.1489916	1.3809	1.3733	6.866656	30.27323
180	7.64129	3.1489608	1.3474	1.3400	6.868076	30.28307
181	7.63301	3.1487507	1.3260	1.3187	6.869174	30.28805
182	7.62699	3.1487507	1.3322	1.3249	6.869899	30.29329
183	7.62045	3.1490475	1.3506	1.3432	6.870548	30.30214
184	7.61549	3.1480771	1.3840	1.3764	6.871605	30.29611
185	7.61254	3.1495854	1.4145	1.4068	6.871249	30.31473
186	7.61634	3.1480586	1.4389	1.4309	6.871513	30.29515
187	7.61665	3.1453085	1.4573	1.4493	6.872776	30.26560
188	7.60964	3.1396878	1.4571	1.4491	6.876281	30.21187
189	7.59793	3.1302399	1.4451	1.4372	6.882168	30.12147
190	7.58338	3.1179695	1.4298	1.4220	6.889744	30.00348
191	7.57174	3.1077961	1.4055	1.3978	6.895983	29.90528
192	7.56815	3.1030676	1.3842	1.3766	6.898663	29.85806
193	7.57284	3.0997487	1.3629	1.3554	6.899665	29.81874
194	7.58164	3.0980959	1.3538	1.3463	6.899375	29.79363
195	7.58623	3.0956450	1.3600	1.3525	6.899978	29.76365
196	7.58597	3.0931027	1.3844	1.3767	6.901215	29.73684
197	7.58607	3.0916907	1.3965	1.3888	6.901872	29.72174
198	7.58744	3.0913347	1.4148	1.4071	6.901874	29.71678
199	7.58908	3.0911935	1.4393	1.4314	6.901742	29.71387
200	7.59588	3.0956756	1.4545	1.4465	6.898788	29.75567
201	7.60616	3.0946315	1.4575	1.4495	6.898028	29.73579
202	7.61138	3.0943612	1.4454	1.4375	6.897518	29.72846
203	7.61154	3.1013891	1.4150	1.4072	6.894172	29.80299
204	7.61112	3.1080910	1.3845	1.3769	6.891050	29.87458
205	7.61180	3.1121393	1.3510	1.3435	6.889050	29.91703
206	7.61370	3.1144473	1.3236	1.3163	6.887727	29.93994
207	7.61586	3.1156601	1.3328	1.3255	6.886891	29.95097
208	7.61723	3.1161588	1.3663	1.3587	6.886489	29.95507
209	7.61839	3.1175812	1.4090	1.4013	6.885676	29.96917
210	7.62066	3.1195458	1.4426	1.4347	6.884472	29.98809
211	7.62647	3.1178213	1.4577	1.4497	6.884584	29.96475
212	7.63285	3.1235134	1.4670	1.4589	6.881119	30.01974
213	7.63359	3.1258432	1.4365	1.4286	6.879928	30.04388
214	7.63211	3.1262501	1.4092	1.4014	6.879914	30.04949
215	7.63100	3.1287471	1.3757	1.3681	6.878867	30.07701
216	7.63026	3.1288951	1.3330	1.3257	6.878886	30.07924
217	7.62947	3.1304245	1.3117	1.3045	6.878259	30.09619
218	7.62963	3.1322566	1.3239	1.3167	6.877374	30.11553
219	7.62963	3.1346752	1.3299	1.3225	6.876231	30.14125
220	7.62995	3.1355639	1.3697	1.3622	6.875774	30.15041
221	7.63048	3.1365884	1.3909	1.3833	6.875226	30.16084
222	7.63095	3.1388478	1.4062	1.3985	6.874102	30.18445
223	7.63106	3.1415957	1.4155	1.4077	6.872791	30.21359
224	7.63079	3.1427322	1.4124	1.4046	6.872286	30.22591
225	7.63042	3.1442210	1.4064	1.3986	6.871627	30.24207
226	7.63048	3.1448573	1.3943	1.3866	6.871320	30.24880
227	7.63127	3.1459016	1.3851	1.3775	6.870731	30.25923
228	7.63148	3.1471004	1.3791	1.3715	6.870139	30.27180
229	7.63048	3.1475083	1.3638	1.3563	6.870067	30.27702
230	7.62879	3.1476690	1.3425	1.3351	6.870194	30.28021
231	7.62779	3.1480275	1.3516	1.3441	6.870146	30.28489
232	7.62694	3.1489300	1.3639	1.3564	6.869821	30.29523
233	7.62662	3.1507971	1.3761	1.3685	6.868978	30.31537
234	7.62815	3.1521945	1.4005	1.3928	6.868133	30.32890
235	7.62884	3.1537283	1.4218	1.4140	6.867327	30.34462
236	7.62794	3.1538458	1.4158	1.4080	6.867379	30.34666
237	7.62509	3.1552005	1.3976	1.3899	6.867082	30.36357
238	7.62193	3.1564070	1.3702	1.3626	6.866892	30.37919
239	7.61987	3.1569700	1.3305	1.3232	6.866873	30.38700
240	7.61834	3.1579354	1.3153	1.3081	6.866601	30.39863
241	7.61708	3.1586842	1.3367	1.3294	6.866400	30.40770
242	7.61739	3.1577807	1.3793	1.3717	6.866790	30.39778
243	7.61781	3.1583067	1.4192	1.4114	6.866491	30.40300
244	7.61829	3.1606092	1.4373	1.4294	6.865346	30.42710
245	7.61982	3.1590122	1.4434	1.4355	6.865917	30.40875
246	7.61892	3.1601263	1.4282	1.4204	6.865498	30.42140
247	7.61739	3.1614820	1.3856	1.3780	6.865041	30.43720
248	7.61592	3.1625965	1.3430	1.3356	6.864691	30.45038
249	7.61454	3.1638597	1.3003	1.2931	6.864258	30.46506
250	7.61370	3.1648568	1.3065	1.2993	6.863888	30.47642
251	7.61344	3.1651541	1.3339	1.3266	6.863780	30.47981
252	7.61402	3.1631972	1.3889	1.3812	6.864636	30.45843
253	7.61349	3.1644914	1.4376	1.4297	6.864089	30.47266
254	7.61391	3.1657426	1.4560	1.4480	6.863447	30.48561
255	7.61439	3.1640703	1.4589	1.4509	6.864180	30.46737
256	7.61191	3.1641942	1.4284	1.4206	6.864419	30.47088
257	7.60890	3.1650365	1.4073	1.3995	6.864382	30.48250
258	7.60705	3.1658789	1.3768	1.3692	6.864205	30.49311
259	7.60600	3.1663497	1.3617	1.3542	6.864109	30.49906
260	7.60616	3.1664860	1.3800	1.3724	6.864026	30.50036
261	7.60637	3.1667276	1.3983	1.3906	6.863887	30.50274
262	7.60642	3.1672046	1.4165	1.4088	6.863655	30.50777
263	7.60800	3.1670249	1.4379	1.4300	6.863550	30.50446
264	7.60790	3.1663001	1.4318	1.4240	6.863906	30.49683
265	7.60600	3.1665107	1.4167	1.4089	6.864034	30.50075
266	7.60415	3.1668763	1.3954	1.3877	6.864082	30.50627
267	7.60294	3.1675701	1.3649	1.3574	6.863899	30.51475
268	7.60231	3.1678985	1.3558	1.3483	6.863820	30.51881
269	7.60173	3.1678985	1.3649	1.3574	6.863890	30.51931
270	7.60125	3.1677188	1.3986	1.3909	6.864032	30.51780
271	7.60062	3.1687040	1.4139	1.4061	6.863643	30.52885
272	7.60115	3.1692307	1.4291	1.4213	6.863331	30.53399
273	7.60226	3.1686854	1.4321	1.4242	6.863456	30.52721
274	7.60173	3.1683818	1.4322	1.4243	6.863663	30.52443
275	7.59988	3.1683818	1.4201	1.4123	6.863884	30.52606
276	7.59867	3.1685491	1.4109	1.4032	6.863950	30.52891
277	7.59809	3.1685925	1.4048	1.3971	6.864000	30.52989
278	7.59809	3.1685925	1.3988	1.3911	6.863999	30.52989
279	7.59841	3.1688032	1.3989	1.3912	6.863862	30.53186
280	7.59793	3.1691998	1.4020	1.3943	6.863731	30.53650
281	7.59677	3.1693795	1.4172	1.4094	6.863786	30.53943
282	7.59593	3.1693423	1.4233	1.4155	6.863905	30.53977
283	7.59614	3.1692865	1.4385	1.4306	6.863906	30.53898
284	7.59635	3.1694415	1.4386	1.4307	6.863808	30.54045
285	7.59656	3.1696831	1.4447	1.4367	6.863668	30.54284
286	7.59551	3.1699558	1.4264	1.4186	6.863665	30.54668
287	7.59414	3.1700736	1.3961	1.3884	6.863774	30.54915
288	7.59303	3.1701418	1.3869	1.3793	6.863874	30.55086
289	7.59234	3.1702843	1.3808	1.3732	6.863889	30.55298
290	7.59161	3.1704640	1.3841	1.3765	6.863893	30.55555
291	7.59150	3.1705570	1.4053	1.3976	6.863862	30.55662
292	7.59161	3.1705260	1.4144	1.4066	6.863864	30.55619
293	7.59171	3.1709227	1.4297	1.4218	6.863664	30.56033
294	7.59203	3.1714495	1.4390	1.4311	6.863377	30.56566
295	7.59287	3.1714619	1.4420	1.4341	6.863270	30.56505
296	7.59308	3.1715239	1.4512	1.4433	6.863215	30.56552
297	7.59292	3.1712512	1.4329	1.4250	6.863363	30.56276
298	7.59250	3.1709227	1.4208	1.4130	6.863569	30.55963
299	7.59155	3.1710095	1.4086	1.4009	6.863642	30.56140
300	7.59150	3.1714124	1.4087	1.4010	6.863457	30.56574
301	7.59150	3.1716417	1.4025	1.3948	6.863349	30.56819
302	7.59092	3.1717967	1.4089	1.4011	6.863345	30.57035
303	7.59066	3.1718277	1.4117	1.4040	6.863362	30.57091
304	7.59039	3.1713132	1.4210	1.4132	6.863637	30.56565
305	7.59024	3.1713752	1.4302	1.4223	6.863627	30.56645
306	7.59050	3.1723732	1.4455	1.4375	6.863124	30.57685
307	7.59187	3.1728505	1.4455	1.4375	6.862733	30.58074
308	7.59319	3.1725839	1.4456	1.4377	6.862701	30.57674
309	7.59324	3.1726087	1.4427	1.4347	6.862683	30.57696
310	7.59303	3.1727017	1.4366	1.4287	6.862664	30.57814
311	7.59287	3.1727327	1.4333	1.4254	6.862668	30.57861
312	7.59208	3.1726273	1.4244	1.4165	6.862813	30.57818
313	7.59166	3.1726707	1.4122	1.4045	6.862843	30.57902
314	7.59129	3.1728815	1.4061	1.3984	6.862787	30.58160
315	7.59103	3.1729125	1.4032	1.3954	6.862804	30.58216
316	7.59071	3.1730365	1.4093	1.4016	6.862784	30.58376
317	7.59002	3.1727327	1.4277	1.4198	6.863010	30.58111
318	7.58981	3.1721500	1.4369	1.4290	6.863311	30.57508
319	7.58960	3.1724600	1.4642	1.4562	6.863191	30.57856
320	7.59034	3.1736379	1.4795	1.4713	6.862545	30.59047
321	7.59282	3.1738177	1.4766	1.4684	6.862162	30.59021
322	7.59287	3.1736999	1.4614	1.4533	6.862212	30.58891
323	7.59266	3.1737619	1.4278	1.4199	6.862207	30.58977
324	7.59208	3.1739417	1.3973	1.3896	6.862191	30.59221
325	7.59140	3.1742207	1.3792	1.3716	6.862141	30.59580
326	7.59108	3.1741215	1.3791	1.3716	6.862226	30.59502
327	7.59087	3.1708607	1.3975	1.3898	6.863794	30.56042
328	7.58997	3.1678119	1.4310	1.4232	6.865345	30.52868
329	7.58929	3.1727637	1.4554	1.4474	6.863085	30.58208
330	7.59018	3.1732163	1.4708	1.4627	6.862763	30.58611
331	7.59282	3.1749896	1.4830	1.4748	6.861608	30.60270
332	7.59577	3.1749089	1.4769	1.4688	6.861292	30.59925
333	7.59704	3.1744253	1.4464	1.4385	6.861368	30.59299
334	7.59588	3.1741524	1.4190	1.4112	6.861636	30.59111
335	7.59340	3.1743013	1.3948	1.3872	6.861862	30.59489
336	7.59118	3.1743633	1.3916	1.3840	6.862099	30.59750
337	7.58992	3.1714806	1.4070	1.3993	6.863615	30.56786
338	7.58944	3.1676322	1.4283	1.4204	6.865493	30.52723
339	7.58886	3.1700737	1.4528	1.4448	6.864408	30.55376
340	7.58923	3.1731543	1.4743	1.4662	6.862907	30.58629
341	7.59176	3.1749090	1.4713	1.4632	6.861773	30.60278
342	7.59445	3.1752748	1.4682	1.4601	6.861277	30.60431
343	7.59593	3.1748903	1.4377	1.4298	6.861281	30.59893
344	7.59503	3.1749709	1.4134	1.4056	6.861350	30.60059
345	7.59229	3.1752996	1.3921	1.3844	6.861523	30.60651
346	7.59045	3.1734581	1.3921	1.3845	6.862616	30.58850
347	7.58929	3.1683262	1.4165	1.4087	6.865184	30.53477
348	7.58797	3.1687166	1.4471	1.4391	6.865158	30.54008
349	7.58723	3.1693734	1.4746	1.4665	6.864936	30.54772
350	7.58728	3.1723670	1.4960	1.4877	6.863514	30.57959
351	7.58897	3.1750888	1.4961	1.4879	6.862023	30.60714
352	7.59245	3.1749090	1.4624	1.4544	6.861690	30.60218
353	7.59271	3.1755167	1.4168	1.4090	6.861370	30.60845
354	7.59082	3.1757275	1.3651	1.3576	6.861497	30.61239
355	7.58850	3.1755601	1.3406	1.3333	6.861854	30.61266
356	7.58749	3.1721562	1.3469	1.3395	6.863585	30.57723
357	7.58644	3.1721562	1.3865	1.3789	6.863713	30.57814
358	7.58528	3.1747850	1.4444	1.4365	6.862609	30.60717
359	7.58307	3.1758765	1.5054	1.4971	6.862359	30.62074
360	7.58096	3.1749401	1.5512	1.5427	6.863056	30.61259
361	7.58012	3.1748781	1.5513	1.5427	6.863187	30.61267
362	7.58185	3.1746983	1.5178	1.5095	6.863063	30.60923
363	7.58402	3.1750889	1.4476	1.4397	6.862617	30.61153
364	7.58402	3.1750579	1.3563	1.3488	6.862630	30.61124
365	7.58359	3.1753307	1.2802	1.2731	6.862550	30.61455
366	7.58328	3.1744874	1.2619	1.2550	6.862987	30.60584
367	7.58296	3.1758764	1.2956	1.2885	6.862368	30.62093
368	7.58159	3.1779295	1.3779	1.3703	6.861562	30.64401
369	7.57827	3.1794805	1.4814	1.4733	6.861228	30.66344
370	7.57511	3.1786926	1.5395	1.5310	6.861981	30.65779
371	7.57327	3.1754239	1.5577	1.5492	6.863751	30.62452
372	7.57216	3.1742767	1.5395	1.5310	6.864427	30.61326
373	7.57363	3.1746673	1.4756	1.4675	6.864063	30.61616
374	7.57579	3.1746983	1.4085	1.4008	6.863788	30.61462
375	7.57822	3.1749587	1.3414	1.3341	6.863372	30.61529
376	7.57938	3.1751199	1.3052	1.2980	6.863156	30.61601
377	7.58001	3.1753617	1.3141	1.3069	6.862966	30.61803
378	7.58038	3.1759385	1.3478	1.3404	6.862649	30.62384
379	7.58070	3.1760005	1.4056	1.3979	6.862583	30.62420
380	7.58038	3.1756657	1.4667	1.4586	6.862781	30.62088
381	7.58070	3.1750207	1.4973	1.4890	6.863049	30.61370
382	7.58180	3.1755168	1.5064	1.4981	6.862681	30.61802
383	7.58365	3.1756966	1.4912	1.4830	6.862374	30.61832
384	7.58365	3.1765711	1.4365	1.4286	6.861959	30.62767
385	7.58317	3.1772720	1.3878	1.3802	6.861684	30.63559
386	7.58254	3.1778736	1.3421	1.3348	6.861474	30.64259
387	7.58217	3.1779295	1.3390	1.3317	6.861492	30.64351
388	7.58180	3.1762982	1.3633	1.3559	6.862309	30.62642
389	7.58164	3.1760563	1.4032	1.3954	6.862443	30.62396
390	7.58154	3.1762424	1.4428	1.4349	6.862368	30.62602
391	7.58201	3.1774209	1.4701	1.4620	6.861754	30.63816
392	7.58323	3.1783265	1.4763	1.4682	6.861180	30.64676
393	7.58496	3.1784195	1.4703	1.4623	6.860927	30.64622
394	7.58454	3.1785312	1.4613	1.4533	6.860925	30.64779
395	7.58291	3.1785436	1.4491	1.4411	6.861115	30.64937
396	7.58191	3.1785436	1.4218	1.4139	6.861234	30.65026
397	7.58070	3.1785436	1.3943	1.3866	6.861379	30.65134
398	7.57948	3.1785436	1.3731	1.3655	6.861524	30.65242
399	7.57896	3.1785685	1.3548	1.3473	6.861575	30.65316
400	7.57832	3.1785995	1.3609	1.3534	6.861636	30.65404
401	7.57706	3.1786926	1.3793	1.3717	6.861744	30.65614
402	7.57611	3.1786616	1.4097	1.4019	6.861874	30.65664
403	7.57590	3.1787236	1.4464	1.4384	6.861870	30.65747
404	7.57695	3.1788105	1.4830	1.4748	6.861703	30.65745
405	7.57774	3.1786305	1.4891	1.4809	6.861694	30.65483
406	7.57748	3.1786305	1.4801	1.4719	6.861725	30.65507
407	7.57653	3.1787918	1.4404	1.4325	6.861762	30.65764
408	7.57601	3.1789655	1.4070	1.3992	6.861742	30.65998
409	7.57579	3.1791455	1.3704	1.3629	6.861682	30.66210
410	7.57569	3.1792385	1.3583	1.3508	6.861650	30.66319
411	7.57585	3.1793564	1.3614	1.3539	6.861575	30.66431
412	7.57601	3.1791455	1.3828	1.3752	6.861657	30.66191
413	7.57627	3.1792696	1.4256	1.4177	6.861567	30.66298
414	7.57674	3.1798466	1.4501	1.4421	6.861237	30.66871
415	7.57922	3.1795984	1.4621	1.4540	6.861058	30.66387
416	7.58070	3.1795425	1.4410	1.4331	6.860907	30.66198
417	7.58101	3.1796604	1.4316	1.4237	6.860813	30.66296
418	7.58096	3.1798713	1.4165	1.4088	6.860720	30.66527
419	7.58112	3.1799334	1.4044	1.3967	6.860671	30.66580
420	7.58106	3.1800265	1.4259	1.4180	6.860634	30.66683
421	7.58070	3.1800699	1.4654	1.4574	6.860658	30.66760
422	7.58059	3.1795735	1.4959	1.4876	6.860906	30.66238
423	7.58059	3.1799955	1.5021	1.4939	6.860707	30.66688
424	7.58164	3.1803305	1.4869	1.4787	6.860421	30.66953
425	7.58460	3.1801753	1.4503	1.4424	6.860140	30.66529
426	7.58475	3.1802684	1.4077	1.3999	6.860076	30.66616
427	7.58412	3.1803863	1.3499	1.3424	6.860095	30.66800
428	7.58365	3.1802312	1.3163	1.3091	6.860225	30.66678
429	7.58328	3.1783265	1.3255	1.3182	6.861171	30.64678
430	7.58280	3.1791454	1.3774	1.3698	6.860841	30.65591
431	7.58128	3.1803863	1.4506	1.4426	6.860439	30.67047
432	7.57759	3.1807835	1.5178	1.5094	6.860694	30.67794
433	7.57469	3.1804795	1.5604	1.5518	6.861186	30.67723
434	7.57337	3.1798715	1.5665	1.5579	6.861632	30.67190
435	7.57216	3.1793999	1.5423	1.5339	6.862001	30.66795
436	7.57348	3.1794805	1.4935	1.4853	6.861803	30.66767
437	7.57532	3.1797535	1.4204	1.4125	6.861452	30.66898
438	7.57727	3.1797845	1.3534	1.3460	6.861202	30.66762
439	7.57811	3.1798155	1.3259	1.3186	6.861085	30.66722
440	7.57853	3.1797534	1.3261	1.3188	6.861064	30.66619
441	7.57880	3.1800885	1.3534	1.3460	6.860875	30.66952
442	7.57869	3.1801320	1.4054	1.3977	6.860868	30.67005
443	7.57759	3.1803864	1.4664	1.4583	6.860881	30.67372
444	7.57548	3.1804485	1.5121	1.5038	6.861105	30.67622
445	7.57400	3.1798156	1.5457	1.5372	6.861583	30.67075
446	7.57337	3.1794495	1.5488	1.5403	6.861832	30.66740
447	7.57379	3.1794185	1.5336	1.5252	6.861796	30.66671
448	7.57606	3.1794805	1.4788	1.4706	6.861493	30.66539
449	7.57843	3.1795549	1.4301	1.4223	6.861173	30.66412
450	7.57985	3.1795983	1.3935	1.3858	6.860981	30.66334
451	7.58043	3.1796293	1.3539	1.3465	6.860896	30.66318
452	7.58080	3.1796604	1.3602	1.3527	6.860837	30.66318
453	7.58122	3.1796604	1.3816	1.3740	6.860787	30.66280
454	7.58122	3.1799334	1.4120	1.4043	6.860658	30.66570
455	7.58122	3.1800389	1.4548	1.4468	6.860609	30.66681
456	7.58106	3.1799334	1.4944	1.4862	6.860679	30.66580
457	7.58149	3.1795115	1.5157	1.5074	6.860829	30.66092
458	7.58207	3.1796604	1.5218	1.5135	6.860689	30.66199
459	7.58333	3.1797845	1.5006	1.4924	6.860478	30.66221
460	7.58402	3.1797224	1.4854	1.4773	6.860425	30.66095
461	7.58438	3.1797224	1.4613	1.4532	6.860380	30.66064
462	7.58412	3.1800699	1.4367	1.4288	6.860247	30.66459
463	7.58380	3.1803553	1.4124	1.4046	6.860149	30.66792
464	7.58354	3.1805414	1.4002	1.3925	6.860092	30.67015
465	7.58312	3.1806283	1.3790	1.3714	6.860101	30.67146
466	7.58291	3.1805414	1.3882	1.3805	6.860168	30.67071
467	7.58275	3.1800264	1.4033	1.3956	6.860431	30.66535
468	7.58286	3.1800575	1.4431	1.4352	6.860404	30.66557
469	7.58280	3.1800699	1.4705	1.4624	6.860405	30.66574
470	7.58280	3.1800265	1.5011	1.4929	6.860427	30.66526
471	7.58291	3.1799334	1.5072	1.4989	6.860458	30.66417
472	7.58328	3.1805104	1.5042	1.4960	6.860141	30.67000
473	7.58433	3.1809014	1.4767	1.4686	6.859829	30.67326
474	7.58570	3.1809324	1.4404	1.4324	6.859649	30.67240
475	7.58597	3.1809324	1.4312	1.4233	6.859617	30.67217
476	7.58602	3.1809013	1.4161	1.4083	6.859625	30.67180
477	7.58586	3.1806593	1.4162	1.4084	6.859759	30.66935
478	7.58554	3.1803863	1.4223	1.4145	6.859926	30.66672
479	7.58502	3.1803553	1.4438	1.4359	6.860004	30.66684
480	7.58475	3.1806283	1.4527	1.4448	6.859907	30.66998
481	7.58496	3.1807834	1.4588	1.4508	6.859808	30.67145
482	7.58544	3.1809013	1.4651	1.4570	6.859696	30.67229
483	7.58586	3.1812178	1.4499	1.4419	6.859495	30.67530
484	7.58686	3.1813916	1.4561	1.4481	6.859293	30.67627
485	7.58702	3.1814474	1.4438	1.4359	6.859248	30.67673
486	7.58686	3.1814164	1.4439	1.4359	6.859281	30.67654
487	7.58660	3.1814164	1.4469	1.4389	6.859313	30.67677
488	7.58639	3.1809944	1.4563	1.4483	6.859538	30.67245
489	7.58612	3.1810565	1.5415	1.5330	6.859542	30.67330
490	7.58507	3.1814475	1.6574	1.6483	6.859485	30.67836
491	7.58228	3.1815717	1.7978	1.7879	6.859764	30.68208
492	7.57859	3.1818448	1.9410	1.9303	6.860080	30.68819
493	7.57511	3.1819628	2.1057	2.0941	6.860444	30.69245
494	7.57226	3.1819319	2.2672	2.2547	6.860803	30.69456
495	7.56984	3.1818761	2.4531	2.4396	6.861124	30.69602
496	7.56784	3.1816652	2.6544	2.6398	6.861468	30.69545
497	7.56610	3.1811874	2.9045	2.8886	6.861908	30.69177
498	7.56447	3.1804491	3.1606	3.1432	6.862458	30.68522
499	7.56273	3.1806912	3.4104	3.3916	6.862557	30.68923
500	7.56162	3.1806602	3.6574	3.6372	6.862709	30.68976
501	7.56083	3.1807534	3.9043	3.8828	6.862765	30.69135
502	7.56020	3.1807225	4.1482	4.1254	6.862860	30.69146
503	7.55988	3.1807225	4.3860	4.3619	6.862903	30.69164
504	7.55962	3.1809336	4.6269	4.6014	6.862839	30.69402
505	7.55946	3.1811757	4.8708	4.8439	6.862748	30.69663
506	7.55952	3.1812378	5.1328	5.1046	6.862717	30.69713
507	7.55946	3.1812379	5.3890	5.3593	6.862729	30.69707
508	7.55941	3.1813311	5.6269	5.5959	6.862696	30.69800
509	7.55936	3.1814490	5.8677	5.8354	6.862651	30.69920
510	7.55920	3.1816043	6.1146	6.0809	6.862601	30.70089
511	7.55920	3.1815423	6.3705	6.3354	6.862635	30.70011
512	7.55941	3.1818154	6.6146	6.5782	6.862486	30.70274
513	7.55957	3.1819955	6.8493	6.8115	6.862386	30.70442
514	7.55978	3.1819956	7.1054	7.0662	6.862366	30.70412
515	7.55925	3.1817846	7.3552	7.3147	6.862534	30.70222
516	7.55862	3.1818778	7.5931	7.5512	6.862570	30.70367
517	7.55793	3.1819337	7.8431	7.7999	6.862631	30.70476
518	7.55757	3.1819276	8.0961	8.0515	6.862683	30.70490
519	7.55736	3.1819960	8.3461	8.3001	6.862681	30.70571
520	7.55772	3.1820891	8.5898	8.5425	6.862597	30.70627
521	7.55815	3.1821202	8.8308	8.7821	6.862537	30.70612
522	7.55836	3.1823313	9.0809	9.0308	6.862416	30.70808
523	7.55846	3.1822693	9.3247	9.2733	6.862438	30.70722
524	7.55846	3.1822073	9.5626	9.5098	6.862472	30.70645
525	7.55815	3.1821826	9.7912	9.7372	6.862526	30.70636
526	7.55778	3.1821827	10.0259	9.9705	6.862575	30.70658
527	7.55757	3.1822386	10.2576	10.2010	6.862578	30.70726
528	7.55741	3.1823007	10.4986	10.4406	6.862572	30.70796
529	7.55746	3.1823629	10.7514	10.6920	6.862542	30.70846
530	7.55751	3.1823940	10.9985	10.9377	6.862525	30.70864
531	7.55762	3.1824809	11.2698	11.2076	6.862477	30.70936
532	7.55820	3.1826362	11.5289	11.4652	6.862339	30.71039
533	7.55888	3.1826983	11.7850	11.7199	6.862233	30.71033
534	7.55930	3.1827294	12.0319	11.9655	6.862172	30.71018
535	7.55941	3.1826054	12.2697	12.2019	6.862223	30.70866
536	7.55878	3.1824813	12.5196	12.4505	6.862362	30.70778
537	7.55799	3.1823635	12.7574	12.6869	6.862518	30.70711
538	7.55704	3.1824566	12.9983	12.9265	6.862592	30.70884
539	7.55662	3.1824257	13.2390	13.1659	6.862662	30.70877
540	7.55699	3.1826616	13.4799	13.4054	6.862511	30.71086
541	7.55783	3.1829100	13.7238	13.6480	6.862297	30.71266
542	7.55894	3.1831211	13.9891	13.9118	6.862069	30.71382
543	7.56009	3.1832701	14.2482	14.1694	6.861865	30.71427
544	7.56099	3.1832702	14.5133	14.4330	6.861763	30.71336
545	7.56162	3.1833013	14.7633	14.6817	6.861677	30.71302
546	7.56210	3.1833634	15.0255	14.9424	6.861596	30.71315
547	7.56236	3.1834007	15.2906	15.2060	6.861552	30.71320
548	7.56268	3.1834257	15.5559	15.4699	6.861508	30.71307
549	7.56304	3.1834257	15.8028	15.7154	6.861468	30.71263
550	7.56315	3.1835189	16.0652	15.9763	6.861417	30.71342
551	7.56341	3.1835438	16.3028	16.2126	6.861378	30.71335
552	7.56331	3.1835439	16.5496	16.4581	6.861395	30.71333
553	7.56331	3.1836371	16.7906	16.6977	6.861356	30.71422
554	7.56357	3.1836372	17.0435	16.9492	6.861329	30.71387
555	7.56347	3.1836559	17.3027	17.2069	6.861338	30.71405
556	7.56357	3.1836373	17.5740	17.4767	6.861340	30.71364
557	7.56341	3.1836684	17.8545	17.7557	6.861350	30.71399
558	7.56357	3.1837306	18.1135	18.0132	6.861306	30.71440
559	7.56389	3.1837927	18.3878	18.2860	6.861244	30.71466
560	7.56394	3.1838487	18.6410	18.5378	6.861217	30.71510
561	7.56399	3.1838488	18.9061	18.8014	6.861215	30.71493
562	7.56399	3.1838178	19.1561	19.0500	6.861235	30.71449
563	7.56410	3.1838179	19.4031	19.2956	6.861227	30.71429
564	7.56399	3.1838800	19.6653	19.5564	6.861216	30.71493
565	7.56415	3.1838801	19.9122	19.8019	6.861201	30.71468
566	7.56383	3.1838492	20.1530	20.0413	6.861259	30.71452
567	7.56341	3.1838182	20.4182	20.3050	6.861329	30.71445
568	7.56320	3.1838183	20.6743	20.5597	6.861359	30.71452
569	7.56273	3.1837563	20.9426	20.8265	6.861451	30.71416
570	7.56246	3.1837936	21.2078	21.0902	6.861470	30.71467
571	7.56225	3.1838806	21.4913	21.3721	6.861460	30.71566
572	7.56210	3.1838186	21.7503	21.6297	6.861513	30.71502
573	7.56199	3.1838808	22.0064	21.8844	6.861501	30.71566
574	7.56210	3.1839429	22.2719	22.1483	6.861465	30.71612
575	7.56215	3.1840051	22.5186	22.3937	6.861434	30.71662
576	7.56225	3.1840362	22.7747	22.6483	6.861411	30.71675
577	7.56246	3.1840425	23.0216	22.8938	6.861388	30.71652
578	7.56257	3.1840922	23.2808	23.1516	6.861357	30.71684
579	7.56320	3.1846138	23.5369	23.4062	6.861039	30.72174
580	7.56599	3.1865510	23.8018	23.6697	6.859792	30.73984
581	7.57200	3.1877061	24.0702	23.9366	6.858531	30.74674
582	7.57785	3.1884390	24.3325	24.1974	6.857489	30.74927
583	7.58317	3.1890477	24.6097	24.4731	6.856569	30.75094
584	7.58755	3.1895882	24.8841	24.7459	6.855796	30.75272
585	7.59145	3.1899299	25.1434	25.0037	6.855172	30.75280
586	7.59440	3.1902033	25.3995	25.2585	6.854695	30.75299
587	7.59667	3.1904456	25.6615	25.5189	6.854314	30.75346
588	7.59851	3.1907190	25.9236	25.7796	6.853969	30.75462
589	7.60052	3.1912037	26.1798	26.0343	6.853506	30.75791
590	7.60315	3.1917816	26.4419	26.2949	6.852922	30.76163
591	7.60568	3.1919929	26.6980	26.5496	6.852525	30.76153
592	7.60800	3.1923907	26.9691	26.8192	6.852065	30.76360
593	7.61017	3.1927698	27.2344	27.0830	6.851633	30.76561
594	7.61275	3.1932111	27.5180	27.3650	6.851121	30.76791
595	7.61533	3.1935156	27.8045	27.6498	6.850674	30.76874
596	7.61787	3.1940067	28.1337	27.9772	6.850146	30.77160
597	7.62072	3.1942802	28.4021	28.2441	6.849682	30.77187
598	7.62367	3.1947029	28.6610	28.5016	6.849134	30.77365
599	7.62636	3.1952562	28.9202	28.7594	6.848557	30.77706
600	7.62947	3.1955608	29.1763	29.0140	6.848046	30.77744
601	7.63185	3.1958344	29.4323	29.2685	6.847639	30.77814
602	7.63443	3.1964375	29.6883	29.5231	6.847051	30.78217
603	7.63844	3.1974199	29.9445	29.7778	6.846114	30.78898
604	7.64399	3.1979982	30.2067	30.0386	6.845185	30.79012
605	7.64863	3.1984521	30.4718	30.3022	6.844422	30.79074
606	7.65275	3.1988502	30.7400	30.5689	6.843748	30.79122
607	7.65660	3.1994286	31.0113	30.8387	6.843021	30.79385
608	7.66157	3.2004984	31.2736	31.0994	6.841931	30.80074
609	7.66664	3.2008343	31.5478	31.3721	6.841174	30.79971
610	7.67060	3.2012325	31.8191	31.6418	6.840519	30.80033
611	7.67435	3.2015373	32.0966	31.9178	6.839934	30.80014
612	7.67746	3.2017178	32.3617	32.1814	6.839483	30.79918
613	7.67995	3.2019667	32.6332	32.4514	6.839076	30.79952
614	7.68217	3.2022716	32.8921	32.7088	6.838673	30.80069
615	7.68402	3.2023587	33.1635	32.9787	6.838417	30.79986
616	7.68539	3.2024521	33.4166	33.2303	6.838215	30.79953
617	7.68639	3.2025455	33.6725	33.4848	6.838056	30.79952
618	7.68771	3.2029127	33.9287	33.7395	6.837731	30.80215
619	7.68941	3.2031865	34.1939	34.0032	6.837406	30.80345
620	7.69104	3.2032799	34.4621	34.2699	6.837172	30.80288
621	7.69221	3.2034293	34.7489	34.5551	6.836969	30.80331
622	7.69347	3.2036783	35.0168	34.8215	6.836707	30.80472
623	7.69437	3.2034917	35.2944	35.0975	6.836693	30.80182
624	7.69464	3.2034606	35.5594	35.3610	6.836681	30.80114
625	7.69432	3.2033674	35.8186	35.6187	6.836768	30.80031
626	7.69384	3.2033675	36.0776	35.8762	6.836829	30.80062
627	7.69332	3.2034298	36.3339	36.1311	6.836868	30.80163
628	7.69379	3.2037036	36.5807	36.3765	6.836688	30.80402
629	7.69501	3.2039215	36.8367	36.6311	6.836445	30.80515
630	7.69596	3.2039838	37.0957	36.8886	6.836308	30.80486
631	7.69665	3.2040150	37.3642	37.1556	6.836217	30.80446
632	7.69712	3.2039839	37.6234	37.4133	6.836180	30.80360
633	7.69670	3.2037351	37.9005	37.6888	6.836353	30.80120
634	7.69559	3.2036481	38.1779	37.9647	6.836531	30.80113
635	7.69464	3.2037478	38.4827	38.2678	6.836603	30.80290
636	7.69480	3.2041025	38.7600	38.5435	6.836423	30.80641
637	7.69606	3.2043204	39.0132	38.7952	6.836175	30.80749
638	7.69760	3.2044387	39.2874	39.0678	6.835942	30.80728
639	7.69892	3.2045321	39.5558	39.3347	6.835746	30.80698
640	7.70045	3.2048993	39.8119	39.5893	6.835396	30.80942
641	7.70257	3.2051110	40.0800	39.8559	6.835050	30.80969
642	7.70415	3.2051733	40.3545	40.1289	6.834838	30.80883
643	7.70521	3.2050240	40.6289	40.4017	6.834787	30.80618
644	7.70531	3.2050801	40.9093	40.6805	6.834754	30.80656
645	7.70574	3.2052358	41.1865	40.9562	6.834636	30.80772
646	7.70679	3.2054474	41.4518	41.2200	6.834416	30.80892
647	7.70822	3.2056529	41.7321	41.4986	6.834155	30.80972
648	7.70965	3.2056965	42.0005	41.7655	6.833970	30.80880
649	7.71044	3.2057588	42.2565	42.0200	6.833851	30.80865
650	7.71129	3.2057838	42.5277	42.2897	6.833744	30.80805
651	7.71171	3.2058150	42.8111	42.5715	6.833685	30.80788
652	7.71208	3.2059084	43.0733	42.8323	6.833602	30.80843
653	7.71229	3.2058463	43.3445	43.1019	6.833611	30.80746
654	7.71277	3.2060953	43.6158	43.3716	6.833443	30.80957
655	7.71388	3.2064004	43.8933	43.6475	6.833173	30.81171
656	7.71531	3.2065187	44.1617	43.9144	6.832953	30.81159
657	7.71668	3.2065810	44.4392	44.1903	6.832766	30.81092
658	7.71827	3.2071351	44.7042	44.4538	6.832322	30.81529
659	7.72128	3.2074962	44.9816	44.7296	6.831800	30.81634
660	7.72398	3.2075897	45.2497	44.9962	6.831441	30.81483
661	7.72477	3.2072224	45.5119	45.2569	6.831524	30.81011
662	7.72440	3.2071976	45.7801	45.5236	6.831585	30.81006
663	7.72440	3.2074094	46.0637	45.8055	6.831491	30.81218
664	7.72520	3.2082374	46.3350	46.0752	6.831013	30.82017
665	7.73017	3.2093395	46.6244	46.3630	6.829911	30.82737
666	7.73646	3.2099186	46.8928	46.6298	6.828897	30.82784
667	7.74308	3.2109897	47.1641	46.8996	6.827614	30.83326
668	7.75123	3.2122479	47.4293	47.1633	6.826062	30.83931
669	7.75938	3.2127399	47.6883	47.4209	6.824869	30.83722
670	7.76663	3.2132881	47.9536	47.6846	6.823757	30.83651
671	7.77272	3.2136868	48.2126	47.9422	6.822853	30.83525
672	7.77743	3.2140233	48.4778	48.2059	6.822142	30.83455
673	7.78103	3.2143162	48.7370	48.4635	6.821583	30.83436
674	7.78437	3.2147336	48.9959	48.7210	6.820997	30.83573
675	7.78787	3.2154378	49.2704	48.9938	6.820259	30.84000
676	7.79248	3.2163601	49.5508	49.2727	6.819287	30.84559
677	7.79814	3.2169397	49.8341	49.5544	6.818350	30.84661
678	7.80334	3.2173698	50.1146	49.8332	6.817540	30.84646
679	7.80811	3.2178310	50.3767	50.0938	6.816764	30.84703
680	7.81240	3.2182923	50.6540	50.3695	6.816046	30.84801
681	7.81622	3.2185354	50.9041	50.6182	6.815485	30.84711
682	7.81982	3.2187536	51.1633	50.8759	6.814962	30.84612
683	7.82226	3.2188160	51.3978	51.1090	6.814649	30.84453
684	7.82385	3.2188472	51.6112	51.3213	6.814450	30.84336
685	7.82502	3.2175882	51.7363	51.4456	6.814902	30.82892
686	7.82496	3.2173700	51.7454	51.4547	6.815010	30.82665
687	7.81987	3.2171893	51.7302	51.4395	6.815697	30.82923
688	7.81489	3.2170336	51.7454	51.4547	6.816360	30.83197
689	7.81203	3.2167843	51.7578	51.4670	6.816815	30.83185
690	7.81023	3.2166348	51.7610	51.4701	6.817099	30.83185
691	7.80837	3.2164790	51.7853	51.4944	6.817392	30.83182
692	7.80694	3.2165850	51.7794	51.4885	6.817512	30.83421
693	7.80562	3.2166971	51.7793	51.4884	6.817616	30.83658
694	7.80408	3.2169402	51.7671	51.4763	6.817684	30.84052
695	7.80302	3.2170026	51.7763	51.4854	6.817781	30.84211
696	7.80318	3.2169714	51.7704	51.4795	6.817777	30.84164
697	7.80376	3.2170337	51.7642	51.4734	6.817678	30.84179
698	7.80366	3.2169402	51.7553	51.4645	6.817734	30.84090
699	7.80392	3.2169091	51.7705	51.4796	6.817718	30.84033
700	7.80424	3.2168467	51.7735	51.4826	6.817709	30.83938
701	7.80403	3.2167844	51.7796	51.4887	6.817764	30.83891
702	7.80376	3.2167595	51.7767	51.4858	6.817807	30.83888
703	7.80371	3.2166660	51.7738	51.4829	6.817857	30.83793
704	7.80328	3.2165725	51.7707	51.4798	6.817950	30.83732
705	7.80281	3.2164791	51.7768	51.4859	6.818051	30.83674
706	7.80238	3.2162049	51.7556	51.4648	6.818229	30.83422
707	7.80143	3.2157437	51.7098	51.4193	6.818556	30.83018
708	7.79852	3.2152826	51.6459	51.3558	6.819116	30.82789
709	7.79417	3.2149462	51.5607	51.2711	6.819786	30.82819
710	7.78824	3.2147406	51.4480	51.1589	6.820583	30.83130
711	7.78321	3.2146409	51.3261	51.0377	6.821224	30.83474
712	7.77987	3.2145786	51.1827	50.8952	6.821646	30.83709
713	7.77759	3.2144540	51.0214	50.7348	6.821971	30.83785
714	7.77722	3.2141486	50.8324	50.5469	6.822155	30.83502
715	7.77653	3.2138121	50.6315	50.3472	6.822390	30.83215
716	7.77478	3.2135068	50.4333	50.1501	6.822736	30.83053
717	7.77230	3.2132265	50.2019	49.9200	6.823158	30.82986
718	7.77012	3.2131081	49.9855	49.7048	6.823467	30.83061
719	7.76753	3.2129211	49.7538	49.4745	6.823857	30.83102
720	7.76573	3.2127093	49.5284	49.2504	6.824166	30.83046
721	7.76435	3.2125535	49.3091	49.0324	6.824398	30.83012
722	7.76319	3.2123728	49.0775	48.8021	6.824616	30.82933
723	7.76202	3.2121859	48.8398	48.5657	6.824837	30.82848
724	7.76059	3.2120924	48.6111	48.3384	6.825046	30.82885
725	7.75906	3.2120052	48.3674	48.0960	6.825264	30.82939
726	7.75758	3.2118618	48.1268	47.8568	6.825503	30.82928
727	7.75578	3.2116313	47.8921	47.6235	6.825820	30.82853
728	7.75424	3.2114507	47.6423	47.3751	6.826082	30.82807
729	7.75303	3.2112637	47.3985	47.1327	6.826309	30.82727
730	7.75186	3.2111454	47.1579	46.8935	6.826498	30.82715
731	7.75064	3.2110830	46.9231	46.6600	6.826667	30.82767
732	7.74974	3.2108961	46.6641	46.4025	6.826857	30.82659
733	7.74884	3.2107777	46.4204	46.1602	6.827014	30.82623
734	7.74784	3.2107465	46.1735	45.9147	6.827143	30.82690
735	7.74662	3.2106842	45.9329	45.6755	6.827312	30.82742
736	7.74525	3.2106530	45.6766	45.4206	6.827485	30.82842
737	7.74414	3.2105906	45.4270	45.1724	6.827642	30.82885
738	7.74324	3.2105594	45.1954	44.9422	6.827759	30.82942
739	7.74271	3.2105594	44.9547	44.7028	6.827817	30.82999
740	7.74260	3.2105967	44.7261	44.4756	6.827807	30.83058
741	7.74265	3.2106526	44.5005	44.2513	6.827770	30.83123
742	7.74292	3.2106837	44.2752	44.0273	6.827720	30.83143
743	7.74329	3.2108082	44.0435	43.7969	6.827613	30.83252
744	7.74403	3.2108953	43.8181	43.5727	6.827480	30.83289
745	7.74503	3.2110198	43.5894	43.3454	6.827298	30.83343
746	7.74657	3.2111131	43.3762	43.1333	6.827068	30.83316
747	7.74800	3.2113248	43.1538	42.9122	6.826795	30.83425
748	7.74948	3.2115115	42.9374	42.6971	6.826527	30.83502
749	7.75144	3.2116298	42.7149	42.4758	6.826235	30.83464
750	7.75366	3.2118165	42.4987	42.2609	6.825879	30.83476
751	7.75615	3.2119410	42.2702	42.0337	6.825521	30.83398
752	7.75816	3.2120281	42.0538	41.8185	6.825237	30.83323
753	7.76001	3.2121215	41.8221	41.5881	6.824969	30.83268
754	7.76176	3.2122771	41.5998	41.3671	6.824685	30.83289
755	7.76340	3.2124078	41.3743	41.1429	6.824424	30.83293
756	7.76504	3.2125510	41.1456	40.9155	6.824158	30.83310
757	7.76637	3.2126132	40.9264	40.6976	6.823968	30.83269
758	7.76769	3.2127066	40.7038	40.4762	6.823762	30.83261
759	7.76907	3.2127937	40.4844	40.2581	6.823554	30.83242
760	7.77039	3.2129493	40.2590	40.0339	6.823320	30.83300
761	7.77187	3.2130738	40.0335	39.8097	6.823081	30.83311
762	7.77330	3.2131360	39.8018	39.5793	6.822878	30.83261
763	7.77494	3.2132543	39.5674	39.3462	6.822623	30.83252
764	7.77680	3.2133477	39.3325	39.1127	6.822355	30.83198
765	7.77786	3.2134410	39.0857	38.8673	6.822181	30.83214
766	7.77897	3.2134721	38.8389	38.6219	6.822030	30.83160
767	7.77987	3.2135032	38.5985	38.3828	6.821904	30.83124
768	7.78072	3.2136526	38.3423	38.1281	6.821729	30.83219
769	7.78151	3.2135030	38.1047	37.8919	6.821700	30.83001
770	7.78215	3.2137023	37.8668	37.6554	6.821527	30.83167
771	7.78130	3.2136212	37.6292	37.4191	6.821660	30.83166
772	7.78061	3.2135588	37.3946	37.1858	6.821767	30.83171
773	7.78087	3.2135338	37.1569	36.9494	6.821742	30.83132
774	7.78156	3.2134403	36.9252	36.7191	6.821700	30.82982
775	7.78230	3.2133468	36.6752	36.4705	6.821651	30.82828
776	7.78268	3.2132221	36.4499	36.2465	6.821661	30.82673
777	7.78230	3.2130726	36.2121	36.0100	6.821770	30.82557
778	7.78178	3.2130413	35.9714	35.7707	6.821843	30.82581
779	7.78125	3.2128544	35.7520	35.5525	6.821989	30.82439
780	7.78024	3.2127048	35.5264	35.3282	6.822174	30.82379
781	7.77913	3.2125802	35.3102	35.1132	6.822360	30.82355
782	7.77791	3.2124244	35.0816	34.8859	6.822572	30.82307
783	7.77664	3.2123060	34.8563	34.6618	6.822774	30.82303
784	7.77526	3.2120880	34.6245	34.4314	6.823035	30.82204
785	7.77357	3.2119384	34.3930	34.2012	6.823302	30.82205
786	7.77203	3.2117889	34.1521	33.9616	6.823549	30.82192
787	7.77044	3.2116269	33.9112	33.7221	6.823809	30.82171
788	7.76928	3.2114462	33.6706	33.4829	6.824027	30.82093
789	7.76774	3.2112904	33.4328	33.2464	6.824277	30.82074
790	7.76610	3.2111098	33.1983	33.0133	6.824552	30.82037
791	7.76435	3.2109852	32.9575	32.7738	6.824813	30.82070
792	7.76292	3.2108045	32.7290	32.5466	6.825063	30.82014
793	7.76123	3.2106799	32.4913	32.3102	6.825318	30.82042
794	7.75975	3.2105242	32.2689	32.0891	6.825562	30.82017
795	7.75837	3.2104058	32.0432	31.8647	6.825776	30.82023
796	7.75700	3.2102812	31.8088	31.6317	6.825994	30.82023
797	7.75562	3.2101566	31.5862	31.4103	6.826211	30.82022
798	7.75403	3.2100071	31.3364	31.1619	6.826465	30.82014
799	7.75234	3.2098825	31.0985	30.9253	6.826720	30.82042
800	7.75123	3.2097516	30.8641	30.6922	6.826908	30.82011
801	7.74985	3.2096395	30.6141	30.4437	6.827119	30.82025
802	7.74884	3.2095460	30.3733	30.2042	6.827278	30.82025
803	7.74784	3.2094214	30.1387	29.9710	6.827451	30.81992
804	7.74678	3.2093342	29.8889	29.7225	6.827613	30.82004
805	7.74588	3.2092407	29.6509	29.4859	6.827759	30.81995
806	7.74493	3.2091161	29.4072	29.2435	6.827926	30.81957
807	7.74398	3.2090538	29.1665	29.0043	6.828063	30.81986
808	7.74287	3.2089043	28.9197	28.7588	6.828260	30.81936
809	7.74175	3.2087797	28.6758	28.5163	6.828446	30.81912
810	7.74043	3.2086302	28.4229	28.2648	6.828668	30.81882
811	7.73937	3.2084745	28.1669	28.0102	6.828862	30.81821
812	7.73826	3.2083811	27.9201	27.7648	6.829033	30.81831
813	7.73715	3.2082627	27.6671	27.5133	6.829216	30.81814
814	7.73609	3.2081692	27.4081	27.2557	6.829380	30.81820
815	7.73530	3.2080135	27.1307	26.9799	6.829542	30.81737
816	7.73445	3.2079201	26.8719	26.7225	6.829681	30.81724
817	7.73345	3.2078017	26.6157	26.4678	6.829851	30.81698
818	7.73250	3.2077394	26.3537	26.2072	6.829989	30.81728
819	7.73160	3.2076460	26.1009	25.9559	6.830134	30.81719
820	7.73049	3.2075276	25.8477	25.7041	6.830317	30.81703
821	7.72959	3.2074030	25.5886	25.4465	6.830477	30.81661
822	7.72885	3.2073096	25.3266	25.1859	6.830604	30.81639
823	7.72805	3.2072161	25.0647	24.9255	6.830737	30.81621
824	7.72726	3.2070978	24.8056	24.6678	6.830882	30.81577
825	7.72657	3.2070043	24.5281	24.3919	6.831002	30.81551
826	7.72583	3.2069420	24.2538	24.1191	6.831114	30.81562
827	7.72504	3.2069108	23.9765	23.8434	6.831217	30.81611
828	7.72430	3.2068796	23.7146	23.5829	6.831315	30.81655
829	7.72419	3.2068795	23.4583	23.3281	6.831322	30.81676
830	7.72409	3.2068483	23.2117	23.0828	6.831345	30.81663
831	7.72467	3.2068234	22.9709	22.8434	6.831283	30.81595
832	7.72557	3.2066054	22.7301	22.6040	6.831273	30.81295
833	7.72625	3.2064559	22.4772	22.3525	6.831257	30.81086
834	7.72615	3.2064808	22.2332	22.1099	6.831253	30.81133
835	7.72498	3.2064247	21.9803	21.8584	6.831413	30.81187
836	7.72340	3.2063312	21.7242	21.6038	6.831640	30.81239
837	7.72202	3.2061445	21.4715	21.3524	6.831886	30.81174
838	7.72081	3.2060884	21.2002	21.0826	6.832052	30.81233
839	7.71959	3.2060696	20.9413	20.8252	6.832200	30.81333
840	7.71869	3.2060260	20.6851	20.5705	6.832323	30.81377
841	7.71800	3.2060259	20.4322	20.3189	6.832399	30.81449
842	7.71774	3.2059014	20.1824	20.0705	6.832484	30.81351
843	7.71753	3.2057768	19.9355	19.8250	6.832563	30.81248
844	7.71748	3.2057207	19.7008	19.5916	6.832591	30.81203
845	7.71700	3.2056584	19.4479	19.3402	6.832672	30.81190
846	7.71605	3.2055650	19.2069	19.1005	6.832825	30.81186
847	7.71488	3.2053533	18.9540	18.8490	6.833057	30.81075
848	7.71383	3.2051665	18.7041	18.6005	6.833266	30.80981
849	7.71277	3.2050731	18.4511	18.3489	6.833431	30.80986
850	7.71139	3.2049548	18.1799	18.0792	6.833644	30.80994
851	7.71060	3.2049050	17.9086	17.8095	6.833757	30.81023
852	7.70991	3.2046808	17.6312	17.5336	6.833938	30.80857
853	7.70912	3.2046808	17.3785	17.2823	6.834028	30.80939
854	7.70849	3.2044940	17.1193	17.0246	6.834186	30.80807
855	7.70822	3.2044317	16.8663	16.7730	6.834242	30.80776
856	7.70817	3.2043756	16.6228	16.5308	6.834270	30.80732
857	7.70780	3.2042822	16.3757	16.2851	6.834353	30.80676
858	7.70738	3.2040955	16.1380	16.0488	6.834486	30.80525
859	7.70648	3.2039149	15.8788	15.7910	6.834673	30.80424
860	7.70542	3.2036971	15.6321	15.5457	6.834896	30.80296
861	7.70410	3.2034855	15.3730	15.2880	6.835148	30.80200
862	7.70156	3.2033050	15.1201	15.0364	6.835529	30.80243
863	7.69871	3.2031307	14.8610	14.7789	6.835946	30.80321
864	7.69612	3.2029689	14.6020	14.5212	6.836325	30.80390
865	7.69427	3.2027822	14.3521	14.2728	6.836628	30.80366
866	7.69332	3.2026888	14.0930	14.0151	6.836780	30.80362
867	7.69263	3.2026327	13.8429	13.7664	6.836884	30.80374
868	7.69184	3.2025082	13.5871	13.5121	6.837032	30.80323
869	7.69115	3.2024148	13.3371	13.2634	6.837152	30.80295
870	7.69036	3.2022343	13.0781	13.0059	6.837327	30.80185
871	7.68956	3.2020787	12.8158	12.7450	6.837489	30.80101
872	7.68888	3.2020786	12.5599	12.4906	6.837566	30.80173
873	7.68803	3.2017737	12.2947	12.2268	6.837805	30.79935
874	7.68734	3.2016430	12.0451	11.9786	6.837943	30.79867
875	7.68650	3.2015310	11.7947	11.7296	6.838092	30.79834
876	7.68491	3.2013754	11.5478	11.4841	6.838349	30.79820
877	7.68296	3.2010394	11.3013	11.2389	6.838735	30.79646
878	7.68111	3.2008590	11.0300	10.9691	6.839035	30.79629
879	7.67873	3.2007345	10.7800	10.7205	6.839371	30.79718
880	7.67641	3.2004919	10.5180	10.4599	6.839757	30.79677
881	7.67430	3.2002182	10.2466	10.1901	6.840133	30.79584
882	7.67208	3.1999755	9.9967	9.9415	6.840506	30.79533
883	7.67076	3.1999444	9.7437	9.6899	6.840673	30.79628
884	7.67033	3.1998386	9.4786	9.4263	6.840768	30.79564
885	7.67018	3.1990611	9.2227	9.1718	6.841148	30.78761
886	7.67144	3.1989988	8.9667	8.9172	6.841021	30.78594
887	7.67044	3.1989676	8.7167	8.6687	6.841151	30.78661
888	7.66775	3.1987499	8.4605	8.4139	6.841569	30.78679
889	7.66569	3.1983581	8.2078	8.1625	6.841994	30.78455
890	7.66458	3.1981404	7.9426	7.8988	6.842224	30.78332
891	7.66215	3.1979600	7.6925	7.6501	6.842594	30.78366
892	7.65866	3.1976864	7.4336	7.3926	6.843133	30.78394
893	7.65513	3.1974438	7.1714	7.1319	6.843664	30.78460
894	7.65227	3.1969464	6.9033	6.8652	6.844233	30.78194
895	7.65043	3.1969214	6.6502	6.6136	6.844461	30.78342
896	7.64937	3.1966789	6.3972	6.3620	6.844696	30.78189
897	7.64784	3.1962499	6.1502	6.1164	6.845076	30.77878
898	7.64589	3.1957960	5.8882	5.8558	6.845518	30.77578
899	7.64330	3.1955224	5.6383	5.6072	6.845951	30.77527
900	7.64066	3.1952799	5.3945	5.3648	6.846375	30.77512
901	7.63829	3.1948510	5.1750	5.1465	6.846857	30.77275
902	7.63607	3.1944221	4.9556	4.9283	6.847319	30.77023
903	7.63375	3.1940864	4.7393	4.7132	6.847751	30.76880
904	7.63222	3.1937259	4.5137	4.4889	6.848099	30.76641
905	7.63164	3.1933281	4.3003	4.2767	6.848352	30.76278
906	7.62974	3.1929303	4.0840	4.0615	6.848762	30.76031
907	7.62715	3.1927500	3.8554	3.8341	6.849152	30.76078
908	7.62436	3.1925076	3.6422	3.6221	6.849596	30.76076
909	7.62230	3.1923833	3.4225	3.4037	6.849896	30.76135
910	7.62130	3.1923522	3.2122	3.1946	6.850027	30.76200
911	7.62135	3.1940611	2.9958	2.9793	6.849209	30.78028
912	7.62325	3.1963423	2.7734	2.7581	6.847901	30.80303
913	7.62552	3.1960439	2.5630	2.5489	6.847767	30.79793
914	7.62810	3.1939366	2.3467	2.3338	6.848449	30.77326
915	7.63085	3.1924139	2.1243	2.1126	6.848835	30.75470
916	7.63348	3.1915004	1.9139	1.9034	6.848947	30.74272
917	7.63311	3.1912580	1.6975	1.6882	6.849101	30.74056
918	7.63053	3.1912269	1.4993	1.4910	6.849421	30.74260
919	7.62773	3.1909224	1.2983	1.2912	6.849895	30.74191
920	7.62483	3.1907733	1.0789	1.0730	6.850308	30.74299
921	7.62203	3.1908665	0.8441	0.8395	6.850593	30.74656
922	7.61882	3.1907111	0.5788	0.5756	6.851046	30.74786
923	7.61718	3.1905868	0.2985	0.2969	6.851295	30.74811
924	7.61618	3.1903444	0.0637	0.0633	6.851524	30.74651
925	7.61518	3.1894002	0.0089	0.0089	6.852089	30.73735
926	7.61301	3.1878225	0.0150	0.0150	6.853093	30.72243
927	7.60980	3.1866675	0.0121	0.0120	6.854023	30.71295
928	7.60400	3.1862453	0.0151	0.0150	6.854917	30.71357
929	7.59820	3.1862143	0.0121	0.0120	6.855626	30.71836
930	7.59466	2.5605765	0.0121	0.0121	7.153841	24.14332
931	7.59419	0.7695793	0.0092	0.0091	8.015142	6.55669
932	7.59730	0.7898187	0.0121	0.0121	8.004970	6.74145
933	7.59999	0.7760193	0.0121	0.0121	8.011017	6.61452
934	7.60131	0.8363753	0.0122	0.0121	7.982126	7.16857
935	7.60247	0.6412566	0.0062	0.0061	8.074159	5.39047
936	7.60458	0.5741780	0.0091	0.0090	8.105188	4.78904
937	7.60563	0.5788190	0.0092	0.0092	8.102819	4.83030
938	7.60579	0.5453728	0.0093	0.0092	8.118397	4.53250
939	7.60632	0.5895879	0.0092	0.0092	8.097653	4.92639
940	7.60732	0.5363069	0.0123	0.0123	8.122327	4.45185
941	7.60864	0.4935308	0.0155	0.0154	8.141945	4.07361
942	7.61080	0.4509706	0.0124	0.0123	8.161205	3.69985
943	7.61328	0.4073852	0.0155	0.0154	8.180768	3.31999
944	7.61592	0.3709984	0.0124	0.0123	8.196895	3.00528
945	7.61818	0.3576462	0.0093	0.0092	8.202534	2.89027
946	7.61977	0.3905003	0.0065	0.0065	8.187234	3.17319
947	7.62156	0.3780089	0.0033	0.0033	8.192591	3.06519
948	7.62319	0.4036406	0.0096	0.0095	8.180550	3.28659
949	7.62525	0.4312968	0.0034	0.0034	8.167458	3.52666
950	7.62715	0.4077229	0.0064	0.0063	8.177908	3.32160
951	7.62251	0.3663378	0.0096	0.0095	8.197727	2.96460
952	7.62008	0.3379927	0.0064	0.0064	8.211091	2.72173
953	7.61998	0.2952807	0.0157	0.0156	8.230416	2.35837
954	7.62024	0.2828866	0.0066	0.0065	8.235937	2.25361
955	7.62188	0.2841161	0.0127	0.0127	8.235060	2.26388
956	7.62140	0.2737938	0.0187	0.0186	8.239786	2.17690
957	7.62145	0.2740603	0.0065	0.0065	8.239656	2.17914
958	7.62272	0.2524660	0.0098	0.0097	8.249061	1.99780
959	7.62325	0.2503214	0.0098	0.0098	8.249913	1.97983
960	7.62378	0.2779013	0.0098	0.0097	8.237473	2.21135
961	7.62467	0.2977028	0.0098	0.0098	8.228396	2.37856
962	7.62599	0.3104635	0.0067	0.0067	8.222383	2.48669
963	7.62715	0.2863057	0.0098	0.0097	8.233031	2.28202
964	7.62842	0.2646494	0.0099	0.0098	8.242486	2.09960
965	7.62947	0.2529294	0.0129	0.0128	8.247510	2.00130
966	7.63074	0.2356079	0.0037	0.0036	8.254967	1.85663
967	7.63232	0.2134814	0.0100	0.0099	8.264451	1.67293
968	7.63491	0.2081281	0.0069	0.0069	8.266296	1.62857
969	7.63713	0.1959040	0.0100	0.0100	8.271232	1.52777
970	7.63924	0.1677576	0.0130	0.0129	8.283122	1.29743
971	7.63997	0.1588083	0.0130	0.0129	8.286865	1.22471
972	7.64066	0.1979563	0.0039	0.0039	8.269621	1.54449
973	7.64098	0.2239774	0.0069	0.0069	8.258080	1.75944
974	7.64166	0.2364300	0.0163	0.0162	8.252423	1.86290
975	7.64182	0.2338351	0.0071	0.0071	8.253543	1.84129
976	7.64219	0.2370305	0.0070	0.0070	8.252051	1.86787
977	7.64182	0.2252882	0.0133	0.0132	8.257331	1.77027
978	7.64203	0.2175012	0.0132	0.0131	8.260733	1.70572
979	7.64188	0.2239944	0.0163	0.0162	8.257893	1.75954
980	7.64172	0.2201338	0.0072	0.0072	8.259632	1.72754
981	7.64145	0.2074770	0.0102	0.0102	8.265272	1.62290
982	7.64003	0.1999900	0.0224	0.0223	8.268854	1.56125
983	7.63523	0.1803473	0.0165	0.0164	8.278434	1.40029
984	7.63137	0.1592582	0.0103	0.0103	8.288404	1.22866
985	7.62847	0.1587323	0.0133	0.0132	8.289217	1.22449
986	7.62731	0.1718938	0.0073	0.0073	8.283720	1.33157
987	7.62699	0.1830647	0.0134	0.0133	8.278899	1.42285
988	7.62715	0.1889370	0.0134	0.0134	8.276293	1.47097
989	7.62699	0.1904876	0.0134	0.0134	8.275644	1.48370
