Scan Count	Temperature [ITS-90, deg C]	Conductivity [S/m]	Pressure, Strain Gauge [db]	Depth [salt water, m]	Oxygen Saturation, Weiss [ml/l]	Salinity, Practical [PSU]
1	15.71159	0.0020420	0.0091	0.0091	6.939419	0.01663
2	15.69749	0.0020944	0.0091	0.0091	6.941503	0.01689
3	15.68576	0.0021099	0.0060	0.0060	6.943244	0.01697
4	15.68380	0.0021099	0.0060	0.0060	6.943537	0.01697
5	15.68485	0.0020944	0.0029	0.0029	6.943384	0.01689
6	15.68596	0.0020759	0.0029	0.0029	6.943222	0.01680
7	15.68491	0.0020636	0.0121	0.0120	6.943381	0.01673
8	15.68354	0.0020482	0.0091	0.0090	6.943589	0.01666
9	15.68295	0.0020296	0.0060	0.0060	6.943681	0.01656
10	15.68209	0.0020142	-0.0001	-0.0001	6.943810	0.01649
11	15.67698	0.0020050	0.0060	0.0060	6.944573	0.01644
12	15.66893	0.0019741	0.0091	0.0091	6.945778	0.01628
13	15.66192	0.0019587	0.0091	0.0090	6.946825	0.01621
14	15.65937	0.0019525	0.0091	0.0090	6.947206	0.01617
15	15.65858	0.0019340	-0.0001	-0.0001	6.947327	0.01608
16	15.65865	0.0019247	0.0090	0.0089	6.947320	0.01604
17	15.65858	0.0019124	0.0090	0.0090	6.947332	0.01597
18	15.65544	0.0018970	0.0090	0.0090	6.947803	0.01590
19	15.64503	0.0018877	0.0091	0.0090	6.949356	0.01585
20	15.62848	0.0018784	0.0120	0.0119	6.951825	0.01580
21	15.61004	0.0018630	0.0091	0.0090	6.954579	0.01572
22	15.59892	0.0018568	0.0121	0.0120	6.956238	0.01569
23	15.58984	0.0018630	0.0060	0.0060	6.957593	0.01572
24	15.58056	0.0018414	0.0091	0.0090	6.958983	0.01561
25	15.57671	0.0018352	0.0120	0.0120	6.959560	0.01558
26	15.57789	0.0018352	0.0090	0.0090	6.959384	0.01558
27	15.58030	0.0018322	0.0060	0.0060	6.959024	0.01556
28	15.58357	0.0018167	0.0090	0.0089	6.958539	0.01549
29	15.58638	0.0018167	0.0091	0.0090	6.958120	0.01549
30	15.58893	0.0018167	0.0090	0.0090	6.957739	0.01549
31	15.59056	0.0017982	0.0089	0.0089	6.957499	0.01540
32	15.59291	0.0019432	0.0121	0.0120	6.957118	0.01612
33	15.59618	0.0020389	0.0029	0.0029	6.956609	0.01660
34	15.59932	0.0021346	0.0060	0.0059	6.956121	0.01708
35	15.60200	0.0021809	0.0090	0.0090	6.955711	0.01731
36	15.60396	0.0022364	0.0090	0.0089	6.955406	0.01760
37	15.60572	0.0022827	0.0121	0.0120	6.955133	0.01783
38	15.60768	0.0023321	0.0090	0.0090	6.954830	0.01808
39	15.60958	0.0023629	0.0060	0.0060	6.954540	0.01824
40	15.61174	0.0023599	0.0121	0.0121	6.954219	0.01822
41	15.61298	0.0023599	0.0151	0.0150	6.954034	0.01822
42	15.61429	0.0023537	0.0090	0.0090	6.953840	0.01819
43	15.61592	0.0023506	0.0121	0.0120	6.953597	0.01818
44	15.61808	0.0023537	0.0121	0.0120	6.953274	0.01819
45	15.62089	0.0023599	0.0121	0.0120	6.952853	0.01822
46	15.62423	0.0024432	0.0120	0.0120	6.952338	0.01865
47	15.62697	0.0025296	0.0151	0.0150	6.951910	0.01909
48	15.62966	0.0025821	0.0060	0.0060	6.951498	0.01936
49	15.63155	0.0026809	0.0183	0.0182	6.951194	0.01987
50	15.63352	0.0027179	0.0090	0.0090	6.950893	0.02006
51	15.63554	0.0026870	0.0091	0.0091	6.950598	0.01990
52	15.63810	0.0026531	0.0090	0.0090	6.950225	0.01973
53	15.64098	0.0026623	0.0121	0.0120	6.949794	0.01977
54	15.64392	0.0026654	0.0121	0.0121	6.949354	0.01979
55	15.64621	0.0026716	0.0152	0.0151	6.949012	0.01982
56	15.64850	0.0026809	0.0182	0.0181	6.948669	0.01987
57	15.65066	0.0026376	0.0060	0.0060	6.948356	0.01965
58	15.65263	0.0026901	0.0090	0.0090	6.948052	0.01992
59	15.65393	0.0026809	0.0121	0.0120	6.947859	0.01987
60	15.65544	0.0026901	0.0091	0.0090	6.947633	0.01992
61	15.65642	0.0026870	0.0122	0.0121	6.947487	0.01990
62	15.65714	0.0027179	0.0120	0.0120	6.947373	0.02006
63	15.65747	0.0027333	0.0121	0.0120	6.947321	0.02014
64	15.65812	0.0027117	0.0121	0.0121	6.947229	0.02003
65	15.65878	0.0027179	0.0121	0.0120	6.947130	0.02006
66	15.65878	0.0027426	0.0091	0.0090	6.947124	0.02019
67	15.65845	0.0027796	0.0121	0.0120	6.947165	0.02038
68	15.65819	0.0028321	0.0060	0.0060	6.947193	0.02065
69	15.65577	0.0028784	0.0091	0.0090	6.947543	0.02089
70	15.65328	0.0028692	0.0060	0.0060	6.947916	0.02084
71	15.65197	0.0028692	0.0121	0.0121	6.948111	0.02084
72	15.65066	0.0028599	0.0092	0.0091	6.948308	0.02079
73	15.65020	0.0028321	0.0062	0.0061	6.948382	0.02065
74	15.65001	0.0028074	0.0153	0.0152	6.948417	0.02052
75	15.64994	0.0028043	0.0121	0.0120	6.948427	0.02051
76	15.65053	0.0027827	0.0122	0.0121	6.948344	0.02039
77	15.65066	0.0027611	0.0061	0.0061	6.948329	0.02028
78	15.65086	0.0027241	0.0062	0.0061	6.948308	0.02009
79	15.65020	0.0027025	0.0060	0.0060	6.948410	0.01998
80	15.64817	0.0026531	0.0122	0.0121	6.948723	0.01973
81	15.64104	0.0026253	0.0061	0.0060	6.949792	0.01958
82	15.62567	0.0026006	0.0092	0.0091	6.952089	0.01946
83	15.61291	0.0025821	0.0091	0.0090	6.953995	0.01936
84	15.60540	0.0025605	0.0061	0.0061	6.955122	0.01925
85	15.59925	0.0025389	0.0121	0.0121	6.956043	0.01914
86	15.59330	0.0025049	0.0121	0.0120	6.956938	0.01896
87	15.59036	0.0024926	0.0122	0.0122	6.957380	0.01890
88	15.58755	0.0024771	0.0091	0.0091	6.957803	0.01882
89	15.58559	0.0024648	0.0122	0.0121	6.958098	0.01876
90	15.58559	0.0024401	0.0092	0.0091	6.958104	0.01863
91	15.58697	0.0024278	0.0153	0.0152	6.957901	0.01857
92	15.58716	0.0023969	0.0123	0.0122	6.957879	0.01841
93	15.58318	0.0023722	0.0061	0.0061	6.958479	0.01828
94	15.57560	0.0023599	0.0122	0.0121	6.959614	0.01822
95	15.57299	0.0023413	0.0121	0.0121	6.960008	0.01813
96	15.57403	0.0023228	0.0122	0.0121	6.959856	0.01803
97	15.50833	0.6057785	0.0640	0.0636	6.798158	4.10229
98	14.58294	2.9263725	0.1981	0.1970	6.169630	23.13131
99	13.54497	2.9937262	0.3626	0.3606	6.257484	24.36432
100	12.86998	3.0255374	0.5394	0.5364	6.319207	25.09030
101	12.42138	3.0430902	0.6948	0.6910	6.361811	25.55255
102	12.10844	3.0598360	0.8289	0.8243	6.390001	25.92290
103	11.90197	3.0535731	0.9416	0.9364	6.415177	26.00753
104	11.78814	3.0342292	0.9751	0.9698	6.435167	25.90469
105	11.76094	3.0439389	0.9721	0.9668	6.434507	26.01518
106	11.80207	3.0498235	0.9782	0.9728	6.427691	26.04193
107	11.84607	3.0505804	0.9812	0.9758	6.422514	26.01833
108	11.86238	3.0560728	0.9813	0.9759	6.418623	26.05865
109	11.83942	3.0633064	0.9813	0.9759	6.418430	26.14283
110	11.80983	3.0698670	0.9844	0.9790	6.419221	26.22545
111	11.77040	3.0829426	1.0117	1.0062	6.418622	26.37671
112	11.70790	3.0960272	1.0727	1.0668	6.420555	26.54486
113	11.68773	3.0969672	1.1428	1.1365	6.422427	26.56814
114	11.70479	3.0874884	1.1885	1.1819	6.424157	26.46620
115	11.70245	3.0839981	1.2067	1.2001	6.425748	26.43482
116	11.78485	3.0951728	1.2068	1.2001	6.412380	26.48193
117	11.87604	3.1048315	1.2098	1.2032	6.398675	26.50829
118	11.87168	3.1063934	1.2129	1.2062	6.398563	26.52612
119	11.81471	3.1073965	1.2098	1.2032	6.404450	26.57615
120	11.76136	3.1088179	1.2129	1.2062	6.409786	26.62769
121	11.72808	3.1121838	1.2159	1.2092	6.412172	26.68338
122	11.70808	3.1147013	1.2069	1.2002	6.413417	26.72159
123	11.68902	3.1131873	1.2007	1.1941	6.416095	26.72092
124	11.66161	3.1126275	1.1916	1.1851	6.419334	26.73533
125	11.63327	3.1143143	1.1794	1.1729	6.421817	26.77174
126	11.61034	3.1154411	1.1854	1.1789	6.423918	26.79897
127	11.59865	3.1172760	1.1915	1.1850	6.424506	26.82485
128	11.59905	3.1203863	1.2037	1.1971	6.423269	26.85412
129	11.61005	3.1240400	1.2129	1.2062	6.420656	26.88090
130	11.63040	3.1276828	1.2160	1.2093	6.417017	26.90078
131	11.64697	3.1279601	1.2221	1.2153	6.415087	26.89143
132	11.64287	3.1231769	1.2160	1.2093	6.417368	26.84896
133	11.62403	3.1228566	1.2098	1.2032	6.419567	26.85954
134	11.60426	3.1226412	1.2068	1.2002	6.421830	26.87179
135	11.58929	3.1224934	1.2038	1.1972	6.423539	26.88122
136	11.58374	3.1225551	1.2038	1.1972	6.424128	26.88582
137	11.58497	3.1227954	1.2099	1.2032	6.423900	26.88722
138	11.58701	3.1231774	1.2129	1.2063	6.423528	26.88937
139	11.58672	3.1243052	1.2160	1.2093	6.423128	26.90031
140	11.58555	3.1261482	1.2190	1.2123	6.422550	26.91869
141	11.58561	3.1284664	1.2221	1.2154	6.421654	26.94070
142	11.58666	3.1290028	1.2190	1.2123	6.421332	26.94504
143	11.58421	3.1245764	1.2100	1.2033	6.423301	26.90471
144	11.57585	3.1218528	1.2008	1.1942	6.425268	26.88486
145	11.56493	3.1217851	1.2038	1.1972	6.426501	26.89213
146	11.55605	3.1228203	1.2038	1.1972	6.427084	26.90841
147	11.55447	3.1247246	1.2038	1.1972	6.426526	26.92769
148	11.56154	3.1269314	1.2008	1.1942	6.424898	26.94357
149	11.57217	3.1280534	1.2069	1.2003	6.423295	26.94653
150	11.57848	3.1272209	1.2130	1.2063	6.422918	26.93402
151	11.57731	3.1258647	1.2130	1.2063	6.423568	26.92197
152	11.57346	3.1260312	1.2161	1.2094	6.423929	26.92635
153	11.56937	3.1257353	1.2069	1.2002	6.424494	26.92650
154	11.56382	3.1231469	1.2099	1.2032	6.426100	26.90589
155	11.55780	3.1214155	1.2100	1.2033	6.427430	26.89377
156	11.55371	3.1216928	1.2069	1.2002	6.427775	26.89937
157	11.55424	3.1240405	1.2099	1.2032	6.426815	26.92134
158	11.56995	3.1266169	1.2130	1.2063	6.424091	26.93446
159	11.59420	3.1269495	1.2191	1.2124	6.421288	26.92004
160	11.59677	3.1229124	1.2191	1.2124	6.422552	26.87978
161	11.58403	3.1226167	1.2191	1.2124	6.424072	26.88619
162	11.57381	3.1263024	1.2252	1.2185	6.423787	26.92867
163	11.57860	3.1331109	1.2222	1.2154	6.420645	26.98999
164	11.59058	3.1347829	1.2161	1.2094	6.418684	26.99719
165	11.59192	3.1296565	1.2070	1.2004	6.420502	26.94744
166	11.58123	3.1261482	1.2040	1.1974	6.423027	26.92183
167	11.56428	3.1257354	1.2039	1.1973	6.425055	26.93019
168	11.55313	3.1284667	1.2070	1.2003	6.425237	26.96429
169	11.55669	3.1335924	1.2070	1.2003	6.422875	27.01051
170	11.57182	3.1373136	1.2130	1.2064	6.419779	27.03493
171	11.58187	3.1379740	1.2192	1.2125	6.418419	27.03390
172	11.58614	3.1375233	1.2192	1.2125	6.418123	27.02650
173	11.58684	3.1389741	1.2192	1.2125	6.417489	27.03980
174	11.58725	3.1416170	1.2100	1.2034	6.416430	27.06466
175	11.59058	3.1445758	1.2070	1.2004	6.414929	27.09040
176	11.59672	3.1470907	1.2071	1.2004	6.413291	27.10986
177	11.60420	3.1478447	1.2101	1.2034	6.412180	27.11157
178	11.61087	3.1466147	1.2101	1.2035	6.411919	27.09500
179	11.61402	3.1474490	1.2192	1.2125	6.411253	27.10063
180	11.61473	3.1516775	1.2162	1.2095	6.409557	27.14036
181	11.61894	3.1546770	1.2192	1.2125	6.407946	27.16583
182	11.62520	3.1558276	1.2193	1.2126	6.406820	27.17220
183	11.63105	3.1556358	1.2223	1.2156	6.406252	27.16609
184	11.63591	3.1547387	1.2163	1.2096	6.406062	27.15401
185	11.63766	3.1547944	1.2193	1.2126	6.405849	27.15325
186	11.63772	3.1572877	1.2193	1.2126	6.404889	27.17693
187	11.64123	3.1601097	1.2163	1.2096	6.403425	27.20121
188	11.64849	3.1620721	1.2223	1.2156	6.401881	27.21456
189	11.65604	3.1626726	1.2162	1.2095	6.400825	27.21474
190	11.66289	3.1621957	1.2163	1.2096	6.400257	27.20519
191	11.66945	3.1617437	1.2163	1.2096	6.399712	27.19609
192	11.67408	3.1622018	1.2102	1.2036	6.399031	27.19707
193	11.67707	3.1640594	1.2103	1.2036	6.397996	27.21254
194	11.68205	3.1666856	1.2133	1.2066	6.396450	27.23385
195	11.69002	3.1681290	1.2102	1.2035	6.395028	27.24173
196	11.69817	3.1688229	1.2132	1.2065	6.393874	27.24236
197	11.70555	3.1688538	1.2163	1.2096	6.393056	27.23724
198	11.71312	3.1684076	1.2102	1.2036	6.392400	27.22747
199	11.71945	3.1692440	1.2103	1.2036	6.391391	27.23078
200	11.72544	3.1709978	1.2164	1.2097	6.390071	27.24305
201	11.73300	3.1721134	1.2194	1.2127	6.388821	27.24810
202	11.74093	3.1726899	1.2194	1.2127	6.387738	27.24777
203	11.74885	3.1731113	1.2164	1.2098	6.386714	27.24597
204	11.75672	3.1734460	1.2134	1.2067	6.385730	27.24339
205	11.76459	3.1742334	1.2164	1.2097	6.384574	27.24510
206	11.77222	3.1754425	1.2134	1.2067	6.383284	27.25099
207	11.77980	3.1763168	1.2195	1.2128	6.382127	27.25373
208	11.78556	3.1765276	1.2164	1.2098	6.381421	27.25152
209	11.79043	3.1754981	1.2165	1.2098	6.381281	27.23819
210	11.79578	3.1747539	1.2195	1.2128	6.380981	27.22722
211	11.79972	3.1761988	1.2165	1.2098	6.380005	27.23804
212	11.80389	3.1781029	1.2257	1.2189	6.378829	27.25303
213	11.80695	3.1788287	1.2165	1.2098	6.378222	27.25768
214	11.80748	3.1776191	1.2135	1.2068	6.378623	27.24583
215	11.80989	3.1761677	1.2074	1.2008	6.378910	27.23031
216	11.81154	3.1754421	1.2165	1.2098	6.379006	27.22223
217	11.81201	3.1776562	1.2135	1.2069	6.378116	27.24287
218	11.81554	3.1796786	1.2166	1.2099	6.376967	27.25945
219	11.81889	3.1805286	1.2166	1.2099	6.376281	27.26506
220	11.82159	3.1796475	1.2135	1.2069	6.376321	27.25473
221	11.82589	3.1779848	1.2166	1.2099	6.376484	27.23584
222	11.83077	3.1772839	1.2135	1.2069	6.376218	27.22563
223	11.83465	3.1787106	1.2166	1.2099	6.375257	27.23631
224	11.84054	3.1804415	1.2197	1.2130	6.373963	27.24840
225	11.84725	3.1812854	1.2197	1.2130	6.372915	27.25148
226	11.85302	3.1817384	1.2228	1.2161	6.372118	27.25156
227	11.85778	3.1813722	1.2167	1.2100	6.371739	27.24461
228	11.86450	3.1802551	1.2167	1.2100	6.371433	27.22913
229	11.87174	3.1791320	1.2076	1.2010	6.371071	27.21322
230	11.87704	3.1797710	1.2107	1.2041	6.370254	27.21539
231	11.88240	3.1810182	1.2198	1.2131	6.369202	27.22328
232	11.88912	3.1821041	1.2137	1.2071	6.368064	27.22865
233	11.89489	3.1824082	1.2167	1.2101	6.367323	27.22731
234	11.90085	3.1818620	1.2168	1.2101	6.366884	27.21780
235	11.90762	3.1813716	1.2138	1.2071	6.366334	27.20822
236	11.91441	3.1814647	1.2107	1.2041	6.365564	27.20416
237	11.92095	3.1818866	1.2107	1.2041	6.364696	27.20338
238	11.92779	3.1820727	1.2077	1.2011	6.363885	27.20015
239	11.93475	3.1821037	1.2139	1.2072	6.363119	27.19537
240	11.94172	3.1824325	1.2077	1.2011	6.362242	27.19340
241	11.94821	3.1833759	1.2169	1.2103	6.361184	27.19758
242	11.95452	3.1847105	1.2170	1.2103	6.359999	27.20559
243	11.95753	3.1847105	1.2170	1.2103	6.359673	27.20339
244	11.95806	3.1834689	1.2109	1.2043	6.360082	27.19129
245	11.96096	3.1808871	1.2048	1.1982	6.360740	27.16481
246	11.96161	3.1781944	1.2049	1.1982	6.361682	27.13892
247	11.95812	3.1789512	1.2018	1.1952	6.361774	27.14859
248	11.95730	3.1813463	1.2079	1.2012	6.360963	27.17180
249	11.96096	3.1829475	1.2140	1.2074	6.359965	27.18426
250	11.96350	3.1832827	1.2293	1.2225	6.359565	27.18557
251	11.96462	3.1829785	1.2232	1.2165	6.359558	27.18188
252	11.96846	3.1818178	1.2171	1.2104	6.359578	27.16813
253	11.97466	3.1794040	1.2081	1.2014	6.359814	27.14085
254	11.97761	3.1777972	1.2112	1.2045	6.360098	27.12354
255	11.97643	3.1784361	1.2081	1.2014	6.359986	27.13043
256	11.97814	3.1804960	1.2141	1.2075	6.359027	27.14862
257	11.98423	3.1813460	1.2172	1.2105	6.358049	27.15222
258	11.98925	3.1813149	1.2142	1.2076	6.357518	27.14827
259	11.99386	3.1802166	1.2142	1.2076	6.357432	27.13457
260	11.99882	3.1782808	1.2173	1.2106	6.357621	27.11271
261	12.00095	3.1769844	1.2111	1.2045	6.357877	27.09894
262	12.00118	3.1777101	1.2144	1.2077	6.357579	27.10561
263	12.00497	3.1794347	1.2112	1.2046	6.356523	27.11913
264	12.01372	3.1806445	1.2143	1.2076	6.355123	27.12419
265	12.02359	3.1809174	1.2204	1.2137	6.353954	27.11959
266	12.03572	3.1801851	1.2175	1.2108	6.352917	27.10390
267	12.04974	3.1788572	1.2083	1.2016	6.351899	27.08124
268	12.05791	3.1768287	1.2114	1.2047	6.351775	27.05623
269	12.05755	3.1755263	1.2113	1.2047	6.352301	27.04422
270	12.05199	3.1762830	1.2174	1.2107	6.352619	27.05537
271	12.05163	3.1785842	1.2237	1.2169	6.351797	27.07729
272	12.06081	3.1797009	1.2267	1.2199	6.350388	27.08116
273	12.07413	3.1794029	1.2206	1.2139	6.349060	27.06872
274	12.11389	3.1778268	1.2176	1.2109	6.345357	27.02516
275	12.15755	3.1748308	1.2114	1.2048	6.341763	26.96555
276	12.17405	3.1724126	1.2085	1.2019	6.340883	26.93099
277	12.16865	3.1707825	1.2054	1.1988	6.342072	26.91958
278	12.15707	3.1734729	1.2147	1.2080	6.342320	26.95314
279	12.16651	3.1746199	1.2147	1.2080	6.340875	26.95712
280	12.17821	3.1744709	1.2238	1.2171	6.339669	26.94731
281	12.20096	3.1739871	1.2238	1.2171	6.337397	26.92642
282	12.24913	3.1716866	1.2147	1.2080	6.333062	26.87032
283	12.27603	3.1685443	1.2177	1.2110	6.331328	26.82167
284	12.28336	3.1670077	1.2117	1.2050	6.331108	26.80207
285	12.28991	3.1669395	1.2117	1.2050	6.330428	26.79675
286	12.30183	3.1691203	1.2118	1.2051	6.328339	26.80864
287	12.31762	3.1697212	1.2178	1.2111	6.326419	26.80298
288	12.32358	3.1702975	1.2240	1.2173	6.325565	26.80411
289	12.33247	3.1695413	1.2210	1.2143	6.324889	26.79071
290	12.35054	3.1671309	1.2149	1.2082	6.323835	26.75532
291	12.35711	3.1660406	1.2149	1.2082	6.323531	26.74047
292	12.36158	3.1660096	1.2241	1.2174	6.323061	26.73699
293	12.37066	3.1667342	1.2089	1.2023	6.321819	26.73731
294	12.38331	3.1672793	1.2180	1.2113	6.320259	26.73339
295	12.39484	3.1672791	1.2150	1.2083	6.319021	26.72520
296	12.40076	3.1670932	1.2180	1.2113	6.318454	26.71926
297	12.40279	3.1675207	1.2212	1.2144	6.318079	26.72180
298	12.40392	3.1685739	1.2182	1.2115	6.317570	26.73081
299	12.40566	3.1690572	1.2182	1.2115	6.317206	26.73409
300	12.40608	3.1684252	1.2121	1.2054	6.317393	26.72790
301	12.40590	3.1665542	1.2183	1.2116	6.318100	26.71058
302	12.40470	3.1659843	1.2244	1.2176	6.318438	26.70612
303	12.40076	3.1667649	1.2244	1.2176	6.318575	26.71620
304	12.39789	3.1680907	1.2091	1.2025	6.318395	26.73060
305	12.39699	3.1685430	1.2122	1.2056	6.318325	26.73545
306	12.39592	3.1676385	1.2122	1.2056	6.318773	26.72778
307	12.39419	3.1661703	1.2152	1.2085	6.319499	26.71532
308	12.39132	3.1652598	1.2154	1.2087	6.320142	26.70887
309	12.38714	3.1655881	1.2184	1.2117	6.320470	26.71490
310	12.38379	3.1668270	1.2245	1.2178	6.320374	26.72883
311	12.38284	3.1680351	1.2216	1.2149	6.320032	26.74078
312	12.38122	3.1685184	1.2216	1.2148	6.320027	26.74643
313	12.37836	3.1675085	1.2185	1.2118	6.320707	26.73905
314	12.38033	3.1652909	1.2094	1.2028	6.321311	26.71697
315	12.38158	3.1636620	1.2033	1.1967	6.321776	26.70089
316	12.37818	3.1633277	1.2095	1.2029	6.322265	26.70018
317	12.37286	3.1645973	1.2156	1.2089	6.322369	26.71580
318	12.37275	3.1655882	1.2156	1.2089	6.322016	26.72513
319	12.37376	3.1662696	1.2248	1.2180	6.321657	26.73076
320	12.37286	3.1663749	1.2339	1.2271	6.321714	26.73238
321	12.37991	3.1657430	1.2218	1.2151	6.321190	26.72148
322	12.39018	3.1643246	1.2188	1.2121	6.320608	26.70095
323	12.39436	3.1630860	1.2218	1.2151	6.320614	26.68644
324	12.39496	3.1626402	1.2127	1.2060	6.320714	26.68186
325	12.39532	3.1629993	1.2158	1.2092	6.320543	26.68495
326	12.39813	3.1633585	1.2157	1.2091	6.320109	26.68631
327	12.40428	3.1630302	1.2158	1.2091	6.319569	26.67888
328	12.40733	3.1627268	1.2220	1.2153	6.319353	26.67389
329	12.40476	3.1633088	1.2190	1.2123	6.319415	26.68114
330	12.40410	3.1645969	1.2220	1.2153	6.319012	26.69361
331	12.40823	3.1649251	1.2099	1.2032	6.318449	26.69375
332	12.40900	3.1634822	1.2098	1.2032	6.318896	26.67975
333	12.41157	3.1610427	1.2130	1.2063	6.319516	26.65519
334	12.41265	3.1598975	1.2100	1.2033	6.319821	26.64376
335	12.40536	3.1608942	1.2160	1.2094	6.320238	26.65821
336	12.40255	3.1617052	1.2161	1.2094	6.320242	26.66776
337	12.40386	3.1623677	1.2252	1.2185	6.319857	26.67300
338	12.40667	3.1619466	1.2192	1.2125	6.319710	26.66709
339	12.41402	3.1604670	1.2283	1.2215	6.319464	26.64809
340	12.41701	3.1595633	1.2254	1.2186	6.319475	26.63755
341	12.42006	3.1595385	1.2132	1.2065	6.319156	26.63517
342	12.42227	3.1596251	1.2102	1.2036	6.318887	26.63441
343	12.42269	3.1593280	1.2072	1.2005	6.318951	26.63135
344	12.42000	3.1583316	1.2133	1.2066	6.319606	26.62397
345	12.41104	3.1582574	1.2254	1.2187	6.320597	26.62962
346	12.39998	3.1594149	1.2346	1.2278	6.321361	26.64823
347	12.39765	3.1606838	1.2347	1.2279	6.321144	26.66171
348	12.40273	3.1612843	1.2287	1.2219	6.320378	26.66371
349	12.41994	3.1588453	1.2165	1.2098	6.319424	26.62879
350	12.43286	3.1558812	1.2074	1.2007	6.319124	26.59206
351	12.43531	3.1534687	1.2013	1.1947	6.319746	26.56787
352	12.42508	3.1541553	1.2044	1.1978	6.320594	26.58148
353	12.40237	3.1565002	1.2136	1.2069	6.322175	26.61938
354	12.38953	3.1574656	1.2196	1.2129	6.323202	26.63747
355	12.37806	3.1582268	1.2258	1.2190	6.324155	26.65269
356	12.38003	3.1569830	1.2258	1.2190	6.324401	26.63970
357	12.38672	3.1551826	1.2258	1.2191	6.324344	26.61817
358	12.39042	3.1547000	1.2259	1.2192	6.324123	26.61106
359	12.38767	3.1547001	1.2198	1.2131	6.324418	26.61300
360	12.38212	3.1546444	1.2168	1.2101	6.325037	26.61642
361	12.37543	3.1543414	1.2107	1.2040	6.325868	26.61833
362	12.36857	3.1541559	1.2138	1.2071	6.326676	26.62146
363	12.36230	3.1542488	1.2138	1.2072	6.327317	26.62676
364	12.35806	3.1543973	1.2231	1.2163	6.327719	26.63115
365	12.35573	3.1542612	1.2261	1.2194	6.328019	26.63152
366	12.35388	3.1543107	1.2230	1.2162	6.328200	26.63330
367	12.35227	3.1553623	1.2353	1.2285	6.327987	26.64425
368	12.35382	3.1568039	1.2262	1.2195	6.327288	26.65660
369	12.35914	3.1567729	1.2202	1.2134	6.326727	26.65255
370	12.36224	3.1546137	1.2109	1.2043	6.327189	26.63021
371	12.36015	3.1527768	1.2110	1.2044	6.328090	26.61455
372	12.35114	3.1518183	1.2110	1.2044	6.329415	26.61199
373	12.33390	3.1523565	1.2172	1.2106	6.331075	26.62923
374	12.32311	3.1538224	1.2202	1.2135	6.331698	26.65056
375	12.31553	3.1549421	1.2265	1.2197	6.332101	26.66639
376	12.30916	3.1557525	1.2294	1.2227	6.332489	26.67849
377	12.32448	3.1555111	1.2203	1.2136	6.330926	26.66536
378	12.34344	3.1535562	1.2204	1.2137	6.329604	26.63366
379	12.34911	3.1517009	1.2173	1.2107	6.329677	26.61233
380	12.34762	3.1509465	1.2205	1.2138	6.330116	26.60635
381	12.34595	3.1507672	1.2113	1.2047	6.330362	26.60586
382	12.34577	3.1513979	1.2296	1.2228	6.330149	26.61187
383	12.35048	3.1523254	1.2266	1.2199	6.329299	26.61718
384	12.35502	3.1536303	1.2449	1.2381	6.328329	26.62614
385	12.35341	3.1543416	1.2297	1.2230	6.328241	26.63392
386	12.36116	3.1526593	1.2268	1.2200	6.328025	26.61274
387	12.36922	3.1501364	1.2176	1.2109	6.328086	26.58351
388	12.37233	3.1490730	1.2207	1.2140	6.328143	26.57140
389	12.37537	3.1492090	1.2238	1.2171	6.327764	26.57051
390	12.37489	3.1506495	1.2268	1.2201	6.327286	26.58428
391	12.37519	3.1515769	1.2360	1.2292	6.326912	26.59271
392	12.37442	3.1522386	1.2300	1.2232	6.326752	26.59943
393	12.37937	3.1516697	1.2269	1.2202	6.326428	26.59062
394	12.38499	3.1498395	1.2209	1.2142	6.326496	26.56960
395	12.38391	3.1486711	1.2208	1.2141	6.327042	26.55947
396	12.37615	3.1482200	1.2179	1.2112	6.328045	26.56075
397	12.36743	3.1485229	1.2271	1.2203	6.328873	26.56973
398	12.36379	3.1492277	1.2332	1.2264	6.329006	26.57887
399	12.36552	3.1502291	1.2241	1.2174	6.328450	26.58699
400	12.36451	3.1506805	1.2211	1.2144	6.328393	26.59192
401	12.35842	3.1495677	1.2181	1.2114	6.329460	26.58585
402	12.35311	3.1478679	1.2181	1.2114	6.330659	26.57375
403	12.34792	3.1472932	1.2304	1.2236	6.331431	26.57205
404	12.34219	3.1475652	1.2273	1.2205	6.331948	26.57864
405	12.34004	3.1484305	1.2304	1.2236	6.331861	26.58823
406	12.33915	3.1492712	1.2335	1.2267	6.331647	26.59671
407	12.33628	3.1491352	1.2245	1.2177	6.332006	26.59747
408	12.33837	3.1479793	1.2274	1.2207	6.332207	26.58521
409	12.34118	3.1469348	1.2244	1.2177	6.332290	26.57348
410	12.34159	3.1465763	1.2245	1.2178	6.332377	26.56984
411	12.34159	3.1466999	1.2275	1.2208	6.332332	26.57099
412	12.34356	3.1471758	1.2245	1.2178	6.331944	26.57404
413	12.34822	3.1475033	1.2307	1.2240	6.331321	26.57380
414	12.35227	3.1475033	1.2308	1.2240	6.330884	26.57093
415	12.35329	3.1471139	1.2337	1.2270	6.330918	26.56658
416	12.35317	3.1466936	1.2278	1.2210	6.331085	26.56275
417	12.35281	3.1466628	1.2278	1.2210	6.331135	26.56272
418	12.35281	3.1469903	1.2126	1.2059	6.331014	26.56578
419	12.35269	3.1468729	1.2096	1.2030	6.331071	26.56477
420	12.35203	3.1461004	1.2036	1.1969	6.331426	26.55803
421	12.35126	3.1454084	1.2127	1.2060	6.331765	26.55212
422	12.34786	3.1452601	1.2279	1.2211	6.332187	26.55313
423	12.34356	3.1456432	1.2311	1.2243	6.332509	26.55974
424	12.34135	3.1465455	1.2340	1.2272	6.332415	26.56972
425	12.34004	3.1469904	1.2250	1.2183	6.332392	26.57480
426	12.34774	3.1456432	1.2250	1.2183	6.332058	26.55679
427	12.35382	3.1440923	1.2129	1.2062	6.331973	26.53803
428	12.35281	3.1433449	1.2159	1.2092	6.332358	26.53178
429	12.34989	3.1432893	1.2160	1.2093	6.332694	26.53332
430	12.34744	3.1442098	1.2129	1.2062	6.332619	26.54364
431	12.34159	3.1451675	1.2222	1.2155	6.332897	26.55670
432	12.33432	3.1456186	1.2282	1.2215	6.333516	26.56605
433	12.33789	3.1439195	1.2223	1.2155	6.333757	26.54767
434	12.33789	3.1425049	1.2192	1.2125	6.334278	26.53447
435	12.33378	3.1421158	1.2223	1.2155	6.334867	26.53375
436	12.32889	3.1423568	1.2224	1.2156	6.335306	26.53945
437	12.32680	3.1428448	1.2285	1.2217	6.335351	26.54547
438	12.32829	3.1435551	1.2255	1.2187	6.334928	26.55105
439	12.32668	3.1434934	1.2194	1.2127	6.335125	26.55161
440	12.32120	3.1425978	1.2225	1.2158	6.336048	26.54713
441	12.31619	3.1418381	1.2165	1.2098	6.336869	26.54358
442	12.31232	3.1416961	1.2195	1.2128	6.337341	26.54499
443	12.30957	3.1419987	1.2195	1.2128	6.337525	26.54976
444	12.30790	3.1425361	1.2257	1.2189	6.337507	26.55595
445	12.30582	3.1426288	1.2258	1.2190	6.337698	26.55829
446	12.30451	3.1422644	1.2227	1.2160	6.337975	26.55582
447	12.30481	3.1419679	1.2197	1.2130	6.338052	26.55284
448	12.30564	3.1420297	1.2197	1.2130	6.337939	26.55283
449	12.30695	3.1419370	1.2105	1.2039	6.337831	26.55104
450	12.30832	3.1412391	1.2167	1.2101	6.337941	26.54355
451	12.30880	3.1406215	1.2228	1.2161	6.338118	26.53745
452	12.30790	3.1405351	1.2260	1.2193	6.338246	26.53727
453	12.30665	3.1413997	1.2322	1.2254	6.338062	26.54622
454	12.30636	3.1424373	1.2322	1.2254	6.337711	26.55612
455	12.30701	3.1424744	1.2291	1.2224	6.337626	26.55600
456	12.31130	3.1406524	1.2170	1.2103	6.337836	26.53597
457	12.31333	3.1397570	1.2109	1.2042	6.337947	26.52618
458	12.31398	3.1394730	1.2109	1.2042	6.337981	26.52307
459	12.31387	3.1399978	1.2109	1.2043	6.337800	26.52805
460	12.31506	3.1404115	1.2171	1.2104	6.337519	26.53107
461	12.31589	3.1404115	1.2141	1.2074	6.337428	26.53048
462	12.31428	3.1401337	1.2202	1.2135	6.337705	26.52902
463	12.31261	3.1402942	1.2325	1.2257	6.337826	26.53169
464	12.31124	3.1409797	1.2234	1.2167	6.337721	26.53906
465	12.31077	3.1414305	1.2234	1.2167	6.337606	26.54361
466	12.31321	3.1399793	1.2112	1.2046	6.337878	26.52834
467	12.31404	3.1385901	1.2113	1.2046	6.338301	26.51478
468	12.31112	3.1381456	1.2083	1.2016	6.338781	26.51270
469	12.30695	3.1383555	1.2113	1.2046	6.339155	26.51760
470	12.30463	3.1390347	1.2236	1.2168	6.339155	26.52558
471	12.30266	3.1400844	1.2266	1.2199	6.338980	26.53677
472	12.29843	3.1411280	1.2298	1.2230	6.339052	26.54950
473	12.30004	3.1410416	1.2237	1.2170	6.338910	26.54756
474	12.30492	3.1392199	1.2177	1.2110	6.339055	26.52710
475	12.30469	3.1375469	1.2116	1.2049	6.339699	26.51165
476	12.30224	3.1371889	1.2117	1.2050	6.340095	26.51003
477	12.30159	3.1371889	1.2116	1.2049	6.340166	26.51050
478	12.30278	3.1379605	1.2179	1.2112	6.339752	26.51686
479	12.30278	3.1392199	1.2270	1.2203	6.339287	26.52861
480	12.29897	3.1405661	1.2179	1.2112	6.339201	26.54388
481	12.29938	3.1402944	1.2179	1.2112	6.339257	26.54105
482	12.30266	3.1382445	1.2149	1.2082	6.339660	26.51959
483	12.30159	3.1366827	1.2088	1.2022	6.340353	26.50577
484	12.29694	3.1363248	1.2121	1.2054	6.340988	26.50571
485	12.29331	3.1365902	1.2211	1.2144	6.341284	26.51075
486	12.29295	3.1377075	1.2302	1.2235	6.340909	26.52143
487	12.29211	3.1398745	1.2272	1.2205	6.340198	26.54226
488	12.29122	3.1400845	1.2273	1.2206	6.340217	26.54485
489	12.29325	3.1379050	1.2152	1.2085	6.340804	26.52307
490	12.29188	3.1362940	1.2153	1.2086	6.341548	26.50900
491	12.28830	3.1360286	1.2153	1.2086	6.342033	26.50904
492	12.28324	3.1362941	1.2183	1.2116	6.342483	26.51509
493	12.28086	3.1369237	1.2153	1.2086	6.342508	26.52266
494	12.28026	3.1380224	1.2246	1.2179	6.342166	26.53334
495	12.27699	3.1382941	1.2246	1.2179	6.342420	26.53819
496	12.27389	3.1375163	1.2154	1.2087	6.343043	26.53312
497	12.27419	3.1362633	1.2185	1.2118	6.343474	26.52120
498	12.27383	3.1354733	1.2094	1.2028	6.343805	26.51408
499	12.27276	3.1350413	1.2125	1.2058	6.344081	26.51080
500	12.27252	3.1348624	1.2186	1.2119	6.344173	26.50929
501	12.27306	3.1351030	1.2216	1.2149	6.344026	26.51116
502	12.27449	3.1362263	1.2218	1.2150	6.343456	26.52064
503	12.27603	3.1375472	1.2218	1.2151	6.342799	26.53189
504	12.27556	3.1376398	1.2189	1.2122	6.342816	26.53309
505	12.27711	3.1363867	1.2218	1.2151	6.343113	26.52029
506	12.27865	3.1348746	1.2066	1.2000	6.343504	26.50508
507	12.27949	3.1340910	1.2067	1.2000	6.343704	26.49717
508	12.28032	3.1341773	1.2068	1.2001	6.343582	26.49739
509	12.28110	3.1348067	1.2068	1.2001	6.343265	26.50272
510	12.28199	3.1357571	1.2191	1.2124	6.342817	26.51096
511	12.28086	3.1356399	1.2252	1.2185	6.342983	26.51066
512	12.27877	3.1345970	1.2283	1.2215	6.343595	26.50239
513	12.27764	3.1339676	1.2284	1.2217	6.343950	26.49731
514	12.27693	3.1341835	1.2313	1.2245	6.343948	26.49983
515	12.27681	3.1346834	1.2253	1.2186	6.343775	26.50459
516	12.27764	3.1342946	1.2192	1.2125	6.343829	26.50037
517	12.27836	3.1333444	1.2162	1.2095	6.344103	26.49099
518	12.27788	3.1328940	1.2194	1.2127	6.344322	26.48712
519	12.27711	3.1329557	1.2194	1.2127	6.344383	26.48824
520	12.27711	3.1335233	1.2164	1.2097	6.344172	26.49355
521	12.27776	3.1337023	1.2134	1.2067	6.344035	26.49476
522	12.27800	3.1331778	1.2134	1.2067	6.344204	26.48969
523	12.27800	3.1325115	1.2104	1.2038	6.344450	26.48347
524	12.27740	3.1322401	1.2135	1.2069	6.344615	26.48135
525	12.27693	3.1324498	1.2226	1.2159	6.344589	26.48364
526	12.27669	3.1329249	1.2197	1.2130	6.344439	26.48825
527	12.27657	3.1328385	1.2228	1.2160	6.344484	26.48753
528	12.27609	3.1321846	1.2229	1.2162	6.344778	26.48175
529	12.27556	3.1316047	1.2168	1.2101	6.345050	26.47672
530	12.27466	3.1315245	1.2198	1.2131	6.345177	26.47660
531	12.27389	3.1318268	1.2138	1.2071	6.345149	26.47997
532	12.27323	3.1320057	1.2229	1.2162	6.345154	26.48210
533	12.27264	3.1315430	1.2200	1.2133	6.345389	26.47820
534	12.27187	3.1309879	1.2261	1.2194	6.345679	26.47356
535	12.27079	3.1307844	1.2262	1.2194	6.345870	26.47241
536	12.26960	3.1311668	1.2201	1.2134	6.345858	26.47683
537	12.26871	3.1317898	1.2141	1.2074	6.345724	26.48328
538	12.26704	3.1317035	1.2140	1.2074	6.345937	26.48365
539	12.26544	3.1307536	1.2110	1.2044	6.346463	26.47591
540	12.26341	3.1300690	1.2172	1.2105	6.346936	26.47094
541	12.26008	3.1299704	1.2233	1.2166	6.347334	26.47237
542	12.25764	3.1300382	1.2387	1.2319	6.347573	26.47472
543	12.25609	3.1306303	1.2326	1.2258	6.347522	26.48134
544	12.25222	3.1313520	1.2235	1.2168	6.347674	26.49082
545	12.24925	3.1314076	1.2144	1.2077	6.347975	26.49344
546	12.24824	3.1305132	1.2083	1.2016	6.348417	26.48580
547	12.24532	3.1292366	1.2083	1.2016	6.349206	26.47593
548	12.24235	3.1287742	1.2144	1.2077	6.349700	26.47370
549	12.23985	3.1287557	1.2236	1.2169	6.349979	26.47529
550	12.23860	3.1293847	1.2268	1.2200	6.349881	26.48205
551	12.23741	3.1310499	1.2237	1.2170	6.349392	26.49846
552	12.23515	3.1324502	1.2207	1.2140	6.349118	26.51315
553	12.23580	3.1315558	1.2146	1.2080	6.349379	26.50432
554	12.23652	3.1289654	1.2148	1.2081	6.350262	26.47960
555	12.23313	3.1280466	1.2148	1.2081	6.350971	26.47340
556	12.23009	3.1281515	1.2178	1.2111	6.351261	26.47652
557	12.22831	3.1289346	1.2240	1.2172	6.351164	26.48510
558	12.22646	3.1310192	1.2302	1.2234	6.350591	26.50590
559	12.22236	3.1322036	1.2301	1.2234	6.350597	26.51987
560	12.22206	3.1318273	1.2302	1.2235	6.350769	26.51656
561	12.22224	3.1299769	1.2273	1.2206	6.351436	26.49913
562	12.22040	3.1284599	1.2212	1.2145	6.352199	26.48625
563	12.21868	3.1277755	1.2120	1.2054	6.352640	26.48107
564	12.21755	3.1277755	1.2090	1.2024	6.352763	26.48187
565	12.21648	3.1282256	1.2120	1.2054	6.352712	26.48683
566	12.21636	3.1288793	1.2183	1.2116	6.352482	26.49303
567	12.21636	3.1293726	1.2213	1.2146	6.352299	26.49764
568	12.21570	3.1293849	1.2244	1.2177	6.352366	26.49822
569	12.21445	3.1288484	1.2184	1.2117	6.352700	26.49408
570	12.21344	3.1279297	1.2123	1.2057	6.353151	26.48621
571	12.21261	3.1271529	1.2216	1.2149	6.353530	26.47952
572	12.21190	3.1269432	1.2154	1.2087	6.353685	26.47807
573	12.21113	3.1275413	1.2308	1.2240	6.353547	26.48420
574	12.21029	3.1287745	1.2186	1.2119	6.353180	26.49633
575	12.20928	3.1290273	1.2186	1.2119	6.353195	26.49941
576	12.20809	3.1277756	1.2156	1.2089	6.353789	26.48854
577	12.20720	3.1264069	1.2186	1.2119	6.354395	26.47637
578	12.20595	3.1259508	1.2218	1.2150	6.354700	26.47298
579	12.20471	3.1261419	1.2187	1.2120	6.354764	26.47565
580	12.20417	3.1267399	1.2127	1.2061	6.354600	26.48162
581	12.20364	3.1271468	1.2218	1.2151	6.354507	26.48580
582	12.20269	3.1270358	1.2189	1.2122	6.354652	26.48544
583	12.20185	3.1266474	1.2189	1.2122	6.354887	26.48239
584	12.20126	3.1263207	1.2221	1.2154	6.355073	26.47975
585	12.20090	3.1259817	1.2190	1.2123	6.355237	26.47683
586	12.20067	3.1257536	1.2191	1.2124	6.355348	26.47487
587	12.20061	3.1226967	1.2192	1.2125	6.356490	26.44631
588	12.20043	3.1206266	1.2101	1.2035	6.357279	26.42708
589	12.20025	3.1218649	1.2071	1.2004	6.356838	26.43879
590	12.20007	3.1197888	1.2102	1.2035	6.357629	26.41949
591	12.19948	3.1243606	1.2194	1.2127	6.355995	26.46267
592	12.19900	3.1248845	1.2286	1.2218	6.355852	26.46791
593	12.19865	3.1261420	1.2225	1.2157	6.355423	26.47993
594	12.19829	3.1267091	1.2224	1.2157	6.355251	26.48549
595	12.19817	3.1255502	1.2103	1.2036	6.355695	26.47473
596	12.19758	3.1239785	1.2104	1.2037	6.356343	26.46044
597	12.19508	3.1236458	1.2105	1.2038	6.356738	26.45909
598	12.19264	3.1236766	1.2166	1.2099	6.356992	26.46110
599	12.19122	3.1242251	1.2227	1.2160	6.356943	26.46723
600	12.19021	3.1255195	1.2257	1.2190	6.356572	26.48006
601	12.18825	3.1266784	1.2289	1.2221	6.356354	26.49229
602	12.18658	3.1268264	1.2198	1.2131	6.356479	26.49485
603	12.18593	3.1253901	1.2107	1.2040	6.357085	26.48187
604	12.18492	3.1238554	1.2076	1.2010	6.357765	26.46823
605	12.18195	3.1230851	1.2108	1.2041	6.358375	26.46311
606	12.17886	3.1229126	1.2200	1.2132	6.358775	26.46367
607	12.17631	3.1232885	1.2200	1.2132	6.358913	26.46900
608	12.17512	3.1247738	1.2231	1.2164	6.358489	26.48374
609	12.17287	3.1265614	1.2170	1.2103	6.358069	26.50207
610	12.17061	3.1267032	1.2110	1.2044	6.358262	26.50500
611	12.17055	3.1248047	1.2080	1.2014	6.358975	26.48726
612	12.16918	3.1229928	1.2050	1.1983	6.359798	26.47126
613	12.16717	3.1224444	1.2203	1.2136	6.360222	26.46755
614	12.16562	3.1226663	1.2264	1.2197	6.360307	26.47072
615	12.16521	3.1240343	1.2234	1.2166	6.359843	26.48382
616	12.16414	3.1264999	1.2173	1.2106	6.359042	26.50767
617	12.16194	3.1267403	1.2082	1.2016	6.359191	26.51148
618	12.16218	3.1242685	1.2021	1.1955	6.360085	26.48816
619	12.16075	3.1224630	1.2114	1.2047	6.360913	26.47226
620	12.15826	3.1220995	1.2084	1.2018	6.361319	26.47061
621	12.15690	3.1225801	1.2267	1.2199	6.361289	26.47607
622	12.15642	3.1244473	1.2328	1.2260	6.360646	26.49390
623	12.15512	3.1265616	1.2207	1.2140	6.360000	26.51463
624	12.15423	3.1263273	1.2055	1.1989	6.360184	26.51307
625	12.15535	3.1237694	1.2025	1.1959	6.361014	26.48831
626	12.15464	3.1222227	1.2087	1.2020	6.361668	26.47433
627	12.15227	3.1221612	1.2178	1.2111	6.361949	26.47542
628	12.15025	3.1228451	1.2300	1.2232	6.361914	26.48325
629	12.14888	3.1248973	1.2423	1.2355	6.361298	26.50344
630	12.14592	3.1265000	1.2301	1.2234	6.361024	26.52056
631	12.14615	3.1267405	1.2180	1.2113	6.360908	26.52265
632	12.15037	3.1248973	1.1997	1.1931	6.361136	26.50240
633	12.15274	3.1225801	1.2028	1.1962	6.361741	26.47902
634	12.15161	3.1217853	1.2121	1.2054	6.362160	26.47237
635	12.14799	3.1216313	1.2212	1.2145	6.362612	26.47348
636	12.14580	3.1226110	1.2243	1.2176	6.362486	26.48421
637	12.14515	3.1247495	1.2274	1.2207	6.361760	26.50470
638	12.14236	3.1255446	1.2184	1.2117	6.361767	26.51413
639	12.14236	3.1248974	1.2093	1.2026	6.362008	26.50807
640	12.14390	3.1229376	1.2124	1.2057	6.362571	26.48861
641	12.14337	3.1215020	1.2093	1.2027	6.363164	26.47554
642	12.14218	3.1211570	1.2124	1.2058	6.363422	26.47315
643	12.14040	3.1213049	1.2124	1.2058	6.363561	26.47579
644	12.13945	3.1220134	1.2216	1.2149	6.363400	26.48310
645	12.13909	3.1235046	1.2248	1.2180	6.362883	26.49732
646	12.13749	3.1257542	1.2064	1.1997	6.362218	26.51954
647	12.13832	3.1265001	1.1425	1.1362	6.361849	26.52597
648	12.14200	3.1218347	1.0908	1.0848	6.363187	26.47966
649	12.14224	3.1214404	1.0725	1.0666	6.363308	26.47581
650	12.13915	3.1215082	1.0695	1.0636	6.363619	26.47862
651	12.12800	3.1214528	1.0665	1.0606	6.364854	26.48599
652	12.12011	3.1206582	1.0817	1.0758	6.366010	26.48411
653	12.11650	3.1205596	1.0788	1.0729	6.366441	26.48575
654	12.11359	3.1205042	1.0728	1.0669	6.366778	26.48729
655	12.11223	3.1204673	1.0667	1.0608	6.366941	26.48791
656	12.11336	3.1202640	1.0667	1.0608	6.366894	26.48520
657	12.11442	3.1198513	1.1003	1.0942	6.366932	26.48057
658	12.08752	3.1243926	1.1887	1.1822	6.368170	26.54219
659	11.95588	3.1345324	1.3137	1.3065	6.378728	26.73126
660	11.80307	3.1437953	1.4571	1.4490	6.391929	26.92859
661	11.67496	3.1463114	1.6216	1.6127	6.405006	27.04528
662	11.59350	3.1426054	1.7770	1.7673	6.415372	27.06931
663	11.53567	3.1427295	1.9234	1.9128	6.421689	27.11265
664	11.48650	3.1441324	2.0972	2.0857	6.426569	27.16195
665	11.43408	3.1491324	2.2922	2.2796	6.430421	27.24815
666	11.38121	3.1524285	2.4995	2.4857	6.434980	27.31858
667	11.33561	3.1534186	2.7036	2.6887	6.439633	27.36170
668	11.29795	3.1543715	2.9109	2.8949	6.443426	27.39866
669	11.26028	3.1558814	3.1121	3.0950	6.447006	27.44106
670	11.22513	3.1565438	3.3133	3.2950	6.450639	27.47350
671	11.18758	3.1606350	3.5298	3.5103	6.453198	27.54079
672	11.13211	3.1706142	3.7521	3.7315	6.455429	27.67846
673	11.05039	3.1801279	3.9746	3.9528	6.460734	27.83190
674	10.95481	3.1855413	4.1881	4.1650	6.469181	27.95678
675	10.86459	3.1891566	4.4135	4.3892	6.477754	28.06065
676	10.78247	3.1944204	4.6391	4.6136	6.484775	28.17482
677	10.70418	3.1984125	4.8525	4.8258	6.491881	28.27407
678	10.63882	3.2009819	5.0750	5.0471	6.498123	28.34972
679	10.58073	3.2022952	5.3036	5.2744	6.504066	28.40762
680	10.52825	3.2022025	5.5413	5.5108	6.509959	28.44749
681	10.47942	3.2011642	5.7668	5.7351	6.515835	28.47530
682	10.42645	3.1988760	5.9985	5.9655	6.522691	28.49408
683	10.35919	3.2081977	6.2424	6.2080	6.526422	28.63871
684	10.28296	3.2221557	6.4710	6.4353	6.529243	28.83689
685	10.18631	3.2239405	6.6996	6.6627	6.539327	28.93137
686	10.05656	3.2153387	6.9342	6.8960	6.557451	28.94932
687	9.90740	3.2050779	7.1842	7.1446	6.578558	28.96625
688	9.74824	3.1951344	7.4310	7.3900	6.600795	28.99439
689	9.59255	3.1919106	7.6597	7.6175	6.619915	29.08752
690	9.46816	3.1902965	7.8973	7.8538	6.634844	29.17206
691	9.37563	3.1890800	8.1260	8.0812	6.645989	29.23504
692	9.30490	3.1904226	8.3607	8.3146	6.653548	29.30643
693	9.24555	3.1897959	8.5922	8.5448	6.660656	29.34864
694	9.19453	3.1893554	8.8361	8.7874	6.666734	29.38600
695	9.14714	3.1883249	9.0616	9.0116	6.672658	29.41443
696	9.10320	3.1873255	9.2902	9.2390	6.678177	29.44039
697	9.06429	3.1865063	9.5158	9.4633	6.683042	29.46408
698	9.03006	3.1868048	9.7504	9.6966	6.686880	29.49537
699	8.99908	3.1862339	9.9881	9.9330	6.690726	29.51509
700	8.96977	3.1850484	10.2199	10.1635	6.694652	29.52716
701	8.93410	3.1833851	10.4514	10.3937	6.699531	29.53963
702	8.89960	3.1821938	10.6831	10.6242	6.704071	29.55597
703	8.86481	3.1811640	10.9269	10.8666	6.708579	29.57424
704	8.82444	3.1801345	11.1677	11.1060	6.713742	29.59718
705	8.77853	3.1785901	11.3933	11.3304	6.719787	29.61950
706	8.73153	3.1771702	11.6370	11.5728	6.725914	29.64404
707	8.68074	3.1767180	11.8626	11.7971	6.732061	29.68181
708	8.61687	3.1754597	12.0882	12.0215	6.740110	29.72230
709	8.54085	3.1744188	12.3168	12.2487	6.749504	29.77540
710	8.46804	3.1735144	12.5545	12.4852	6.758477	29.82736
711	8.40365	3.1719715	12.7891	12.7185	6.766764	29.86570
712	8.34968	3.1718544	13.0269	12.9550	6.773190	29.91017
713	8.30421	3.1703116	13.2586	13.1853	6.779268	29.93262
714	8.26784	3.1691160	13.4993	13.4247	6.784119	29.95098
715	8.23821	3.1688933	13.7370	13.6611	6.787734	29.97380
716	8.21336	3.1687449	13.9657	13.8885	6.790750	29.99335
717	8.18002	3.1678407	14.2004	14.1219	6.795121	30.01226
718	8.12720	3.1658465	14.4351	14.3553	6.802311	30.03642
719	8.05739	3.1648563	14.6544	14.5734	6.811073	30.08577
720	7.99408	3.1629806	14.8860	14.8037	6.819486	30.12033
721	7.93859	3.1622940	15.1116	15.0281	6.826431	30.16080
722	7.89390	3.1604620	15.3434	15.2585	6.832628	30.17992
723	7.85493	3.1594411	15.5628	15.4767	6.837770	30.20270
724	7.81579	3.1595283	15.7944	15.7070	6.842421	30.23740
725	7.78199	3.1600548	16.0139	15.9253	6.846230	30.27219
726	7.75588	3.1598880	16.2394	16.1495	6.849444	30.29299
727	7.73181	3.1593189	16.4649	16.3738	6.852604	30.30777
728	7.70902	3.1583599	16.6935	16.6011	6.855797	30.31732
729	7.68782	3.1565533	16.9281	16.8344	6.859199	30.31647
730	7.65919	3.1554276	17.1446	17.0497	6.863177	30.32934
731	7.62731	3.1545434	17.3732	17.2770	6.867437	30.34762
732	7.59572	3.1536717	17.6141	17.5165	6.871661	30.36580
733	7.56389	3.1515756	17.8669	17.7680	6.876499	30.37115
734	7.53387	3.1510009	18.1138	18.0135	6.880401	30.39115
735	7.50609	3.1522256	18.3393	18.2378	6.883180	30.42845
736	7.48195	3.1505255	18.5711	18.4682	6.886912	30.43134
737	7.46303	3.1506741	18.7934	18.6893	6.889135	30.44943
738	7.45057	3.1497470	19.0251	18.9197	6.891088	30.45034
739	7.43739	3.1497904	19.2476	19.1410	6.892668	30.46228
740	7.42327	3.1488757	19.4792	19.3713	6.894820	30.46479
741	7.40747	3.1482764	19.7109	19.6017	6.897026	30.47215
742	7.39267	3.1482457	19.9242	19.8138	6.898839	30.48474
743	7.38019	3.1469294	20.1498	20.0381	6.900987	30.48151
744	7.36797	3.1464723	20.3844	20.2714	6.902693	30.48726
745	7.34884	3.1454035	20.6040	20.4898	6.905533	30.49254
746	7.32359	3.1439705	20.8233	20.7079	6.909293	30.49930
747	7.29176	3.1427724	21.0428	20.9261	6.913744	30.51439
748	7.25756	3.1413893	21.2683	21.1504	6.918579	30.52961
749	7.22285	3.1403523	21.4908	21.3717	6.923313	30.54900
750	7.18359	3.1383831	21.7164	21.5960	6.929061	30.56242
751	7.14441	3.1373650	21.9419	21.8202	6.934344	30.58603
752	7.10731	3.1367913	22.1766	22.0536	6.939165	30.61263
753	7.07486	3.1365325	22.4022	22.2779	6.943266	30.63854
754	7.04937	3.1360267	22.6186	22.4931	6.946640	30.65564
755	7.02586	3.1349223	22.8442	22.7174	6.950064	30.66451
756	6.99972	3.1340217	23.0636	22.9356	6.953716	30.67794
757	6.97240	3.1332570	23.2860	23.1568	6.957448	30.69390
758	6.94416	3.1310241	23.5146	23.3841	6.962017	30.69478
759	6.91574	3.1301301	23.7341	23.6024	6.965956	30.71035
760	6.88609	3.1299085	23.9627	23.8297	6.969719	30.73433
761	6.85698	3.1293291	24.1791	24.0449	6.973595	30.75398
762	6.83172	3.1291506	24.3864	24.2510	6.976801	30.77456
763	6.81093	3.1280841	24.5906	24.4541	6.979897	30.78150
764	6.79371	3.1277514	24.8039	24.6662	6.982191	30.79323
765	6.77650	3.1268268	25.0173	24.8784	6.984778	30.79850
766	6.75717	3.1258469	25.2216	25.0815	6.987655	30.80508
767	6.73641	3.1255143	25.4378	25.2965	6.990391	30.82000
768	6.71778	3.1250461	25.6389	25.4965	6.992933	30.83156
769	6.70540	3.1251942	25.8463	25.7027	6.994396	30.84422
770	6.69802	3.1251635	26.0535	25.9087	6.995329	30.85043
771	6.69240	3.1246706	26.2639	26.1179	6.996274	30.85001
772	6.68889	3.1248371	26.4620	26.3149	6.996630	30.85490
773	6.68539	3.1247817	26.6602	26.5120	6.997095	30.85736
774	6.68224	3.1250468	26.8613	26.7120	6.997357	30.86300
775	6.67807	3.1243628	27.0626	26.9121	6.998219	30.85919
776	6.67487	3.1240362	27.2636	27.1120	6.998782	30.85841
777	6.67338	3.1232968	27.4709	27.3182	6.999339	30.85158
778	6.67353	3.1236358	27.6782	27.5243	6.999156	30.85505
779	6.67152	3.1233832	27.8854	27.7304	6.999535	30.85401
780	6.66781	3.1225514	28.0987	27.9424	7.000413	30.84817
781	6.66384	3.1213809	28.3578	28.2001	7.001493	30.83883
782	6.66090	3.1234143	28.5558	28.3970	7.000849	30.86361
783	6.65534	3.1237719	28.7510	28.5910	7.001365	30.87244
784	6.64740	3.1230017	28.9461	28.7850	7.002736	30.87109
785	6.64478	3.1235379	29.1351	28.9729	7.002799	30.87923
786	6.64632	3.1229710	29.3393	29.1760	7.002894	30.87155
787	6.64771	3.1226999	29.5466	29.3821	7.002861	30.86723
788	6.64823	3.1228540	29.7448	29.5792	7.002724	30.86836
789	6.64673	3.1225830	29.9428	29.7762	7.003049	30.86666
790	6.64323	3.1218745	30.1378	29.9701	7.003840	30.86198
791	6.63999	3.1218130	30.3300	30.1611	7.004278	30.86414
792	6.63736	3.1210984	30.5342	30.3642	7.004964	30.85860
793	6.63453	3.1211293	30.7414	30.5703	7.005304	30.86140
794	6.63133	3.1208028	30.9456	30.7733	7.005868	30.86061
795	6.62696	3.1209385	31.1438	30.9704	7.006347	30.86595
796	6.62304	3.1204765	31.3418	31.1673	7.007068	30.86433
797	6.61965	3.1204766	31.5461	31.3704	7.007494	30.86731
798	6.61661	3.1203166	31.7472	31.5704	7.007955	30.86820
799	6.61481	3.1201195	31.9545	31.7765	7.008281	30.86758
800	6.61326	3.1199163	32.1527	31.9735	7.008579	30.86665
801	6.60884	3.1197994	32.3569	32.1766	7.009191	30.86927
802	6.60189	3.1201876	32.5519	32.3705	7.009864	30.87970
803	6.59268	3.1199167	32.7470	32.5645	7.011148	30.88496
804	6.58177	3.1194980	32.9483	32.7646	7.012716	30.89013
805	6.56691	3.1190301	33.1524	32.9676	7.014802	30.89833
806	6.54738	3.1183714	33.3628	33.1768	7.017566	30.90867
807	6.52893	3.1183716	33.5608	33.3737	7.019865	30.92527
808	6.51368	3.1178730	33.7681	33.5799	7.022019	30.93351
809	6.50023	3.1176269	33.9846	33.7951	7.023822	30.94289
810	6.49268	3.1177255	34.1917	34.0011	7.024717	30.95071
811	6.48883	3.1181075	34.3990	34.2071	7.025009	30.95830
812	6.48683	3.1185941	34.6064	34.4134	7.025018	30.96536
813	6.48483	3.1186434	34.8075	34.6134	7.025246	30.96763
814	6.48262	3.1184649	35.0086	34.8134	7.025615	30.96758
815	6.47878	3.1180339	35.2128	35.0164	7.026316	30.96624
816	6.47401	3.1179293	35.4262	35.2285	7.026968	30.96932
817	6.47129	3.1181696	35.6274	35.4286	7.027190	30.97433
818	6.46888	3.1181697	35.8348	35.6348	7.027495	30.97642
819	6.46559	3.1183176	36.0512	35.8501	7.027834	30.98093
820	6.46339	3.1183177	36.2524	36.0501	7.028113	30.98284
821	6.46216	3.1183732	36.4474	36.2440	7.028243	30.98447
822	6.46159	3.1186257	36.6547	36.4501	7.028190	30.98767
823	6.46282	3.1192047	36.8528	36.6470	7.027749	30.99282
824	6.46339	3.1190262	37.0478	36.8410	7.027773	30.99026
825	6.46236	3.1186937	37.2521	37.0441	7.028073	30.98744
826	6.46031	3.1186753	37.4533	37.2442	7.028342	30.98901
827	6.45652	3.1185830	37.6574	37.4472	7.028866	30.99134
828	6.45370	3.1196794	37.8556	37.6442	7.028669	31.00587
829	6.45805	3.1219465	38.0598	37.8472	7.026989	31.02674
830	6.46641	3.1238383	38.2702	38.0564	7.025000	31.03984
831	6.47472	3.1247565	38.4775	38.2625	7.023508	31.04228
832	6.48114	3.1247997	38.7120	38.4957	7.022693	31.03681
833	6.48565	3.1249353	38.9468	38.7291	7.022068	31.03409
834	6.48729	3.1262730	39.1480	38.9293	7.021196	31.04720
835	6.48591	3.1254963	39.3522	39.1323	7.021763	31.03984
836	6.48309	3.1254286	39.5535	39.3324	7.022152	31.04156
837	6.48242	3.1250835	39.7514	39.5292	7.022413	31.03829
838	6.48216	3.1246953	39.9649	39.7415	7.022645	31.03416
839	6.48170	3.1249049	40.1630	39.9385	7.022601	31.03679
840	6.48150	3.1251145	40.3672	40.1415	7.022525	31.03918
841	6.48001	3.1246647	40.5654	40.3385	7.022941	31.03550
842	6.47801	3.1241655	40.7757	40.5477	7.023445	31.03174
843	6.47436	3.1236418	40.9769	40.7477	7.024166	31.02920
844	6.46877	3.1230934	41.1780	40.9477	7.025143	31.02816
845	6.46057	3.1218797	41.3854	41.1539	7.026780	31.02218
846	6.44970	3.1206600	41.6078	41.3751	7.028753	31.01855
847	6.43888	3.1195391	41.8181	41.5842	7.030671	31.01595
848	6.42002	3.1178148	42.0285	41.7934	7.033898	31.01403
849	6.39328	3.1166021	42.2419	42.0055	7.037852	31.02489
850	6.36877	3.1157219	42.4613	42.2237	7.041365	31.03741
851	6.34452	3.1150635	42.6687	42.4299	7.044735	31.05215
852	6.32289	3.1144420	42.8789	42.6389	7.047761	31.06491
853	6.30403	3.1141283	43.0953	42.8540	7.050285	31.07856
854	6.28881	3.1139685	43.3148	43.0723	7.052278	31.09059
855	6.27466	3.1141164	43.5222	43.2785	7.053979	31.10505
856	6.26175	3.1142274	43.7325	43.4877	7.055546	31.11799
857	6.25226	3.1141168	43.9519	43.7058	7.056797	31.12534
858	6.24287	3.1147387	44.1622	43.9149	7.057661	31.14072
859	6.23379	3.1144126	44.3725	44.1240	7.058971	31.14532
860	6.21971	3.1134772	44.5860	44.3363	7.061218	31.14777
861	6.19514	3.1112804	44.8024	44.5515	7.065429	31.14586
862	6.16595	3.1096503	45.0187	44.7665	7.069935	31.15446
863	6.14187	3.1088570	45.2505	44.9969	7.073375	31.16765
864	6.12218	3.1083836	45.4668	45.2120	7.076101	31.18037
865	6.10702	3.1081193	45.6680	45.4121	7.078149	31.19127
866	6.09274	3.1074245	45.8875	45.6303	7.080311	31.19659
867	6.07881	3.1070864	46.1040	45.8456	7.082244	31.20554
868	6.06722	3.1065516	46.3142	46.0546	7.083985	31.21016
869	6.05529	3.1054940	46.5277	46.2669	7.086039	31.20929
870	6.04406	3.1049285	46.7289	46.4669	7.087751	31.21324
871	6.03629	3.1047811	46.9391	46.6760	7.088812	31.21865
872	6.02914	3.1044984	47.1555	46.8911	7.089866	31.22200
873	6.02391	3.1045784	47.3690	47.1033	7.090490	31.22760
874	6.02071	3.1042834	47.5702	47.3034	7.091050	31.22717
875	6.01777	3.1042528	47.7805	47.5125	7.091442	31.22945
876	6.01609	3.1041053	47.9940	47.7248	7.091734	31.22925
877	6.01493	3.1039025	48.1981	47.9277	7.091991	31.22797
878	6.01315	3.1037858	48.4237	48.1520	7.092280	31.22820
879	6.01137	3.1035768	48.6431	48.3702	7.092617	31.22741
880	6.01082	3.1033679	48.8687	48.5945	7.092801	31.22549
881	6.00990	3.1032573	49.0820	48.8066	7.092978	31.22500
882	6.00666	3.1029254	49.2893	49.0127	7.093564	31.22420
883	6.00316	3.1028087	49.4998	49.2220	7.094071	31.22603
884	5.99935	3.1027289	49.7101	49.4310	7.094598	31.22855
885	5.99717	3.1029872	49.9296	49.6493	7.094745	31.23333
886	5.99631	3.1028705	50.1400	49.8585	7.094919	31.23273
887	5.99580	3.1028828	50.3561	50.0733	7.094981	31.23323
888	5.99514	3.1026616	50.5635	50.2796	7.095184	31.23128
889	5.99301	3.1023667	50.7922	50.5069	7.095610	31.22985
890	5.98885	3.1021025	51.0025	50.7160	7.096277	31.23064
891	5.98596	3.1021025	51.2189	50.9312	7.096647	31.23321
892	5.98322	3.1019859	51.4291	51.1402	7.097058	31.23433
893	5.98145	3.1018261	51.6426	51.3525	7.097370	31.23409
894	5.97805	3.1018385	51.8530	51.5616	7.097798	31.23726
895	5.97288	3.1015436	52.0785	51.7859	7.098610	31.23864
896	5.96852	3.1014208	52.2859	51.9920	7.099229	31.24120
897	5.96518	3.1011935	52.5024	52.2073	7.099775	31.24165
898	5.96203	3.1012489	52.7248	52.4285	7.100149	31.24506
899	5.95864	3.1012982	52.9352	52.6376	7.100557	31.24864
900	5.95408	3.1013659	53.1424	52.8436	7.101104	31.25351
901	5.94805	3.1012492	53.3588	53.0588	7.101933	31.25767
902	5.94146	3.1009851	53.5753	53.2741	7.102908	31.26071
903	5.93387	3.1008070	53.7917	53.4892	7.103967	31.26564
904	5.92744	3.1008072	54.0082	53.7044	7.104786	31.27148
905	5.92192	3.1007397	54.2275	53.9225	7.105525	31.27572
906	5.91746	3.1005739	54.4471	54.1409	7.106180	31.27789
907	5.91387	3.1006354	54.6756	54.3680	7.106609	31.28179
908	5.91093	3.1004880	54.8861	54.5773	7.107062	31.28276
909	5.90891	3.1003406	55.0994	54.7893	7.107400	31.28289
910	5.90632	3.1003653	55.3219	55.0106	7.107719	31.28544
911	5.90283	3.1001503	55.5444	55.2318	7.108278	31.28617
912	5.89914	3.1000459	55.7640	55.4502	7.108806	31.28832
913	5.89620	3.0998371	55.9835	55.6684	7.109291	31.28860
914	5.89377	3.0998679	56.2030	55.8866	7.109588	31.29108
915	5.89114	3.0995116	56.4225	56.1049	7.110111	31.28943
916	5.88846	3.0993397	56.6419	56.3230	7.110545	31.28989
917	5.88538	3.0991923	56.8583	56.5382	7.111018	31.29100
918	5.88098	3.0992784	57.0748	56.7534	7.111536	31.29593
919	5.87592	3.0991249	57.2790	56.9564	7.112262	31.29880
920	5.87167	3.0990452	57.4893	57.1655	7.112847	31.30174
921	5.86793	3.0988671	57.7087	57.3837	7.113420	31.30311
922	5.86383	3.0984740	57.9223	57.5960	7.114149	31.30241
923	5.85873	3.0981055	58.1449	57.8173	7.114993	31.30292
924	5.85114	3.0978353	58.3611	58.0323	7.116102	31.30682
925	5.84422	3.0978232	58.5746	58.2446	7.116992	31.31300
926	5.83911	3.0977188	58.7879	58.4567	7.117699	31.31646
927	5.83512	3.0975715	59.0196	58.6870	7.118288	31.31840
928	5.83179	3.0976023	59.2481	58.9142	7.118701	31.32173
929	5.82972	3.0977498	59.4647	59.1295	7.118892	31.32520
930	5.82800	3.0976025	59.6872	59.3507	7.119192	31.32503
931	5.82512	3.0973876	59.8975	59.5598	7.119674	31.32520
932	5.82229	3.0974245	60.1140	59.7750	7.120019	31.32813
933	5.82012	3.0973386	60.3336	59.9934	7.120345	31.32908
934	5.81749	3.0973571	60.5530	60.2115	7.120674	31.33162
935	5.81436	3.0974248	60.7604	60.4177	7.121041	31.33519
936	5.81002	3.0971362	60.9735	60.6296	7.121748	31.33588
937	5.80371	3.0970749	61.1930	60.8479	7.122588	31.34095
938	5.79447	3.0966942	61.4064	61.0600	7.123966	31.34516
939	5.78432	3.0964241	61.6321	61.2844	7.125402	31.35145
940	5.77403	3.0961356	61.8484	61.4994	7.126867	31.35767
941	5.76545	3.0960743	62.0589	61.7087	7.127996	31.36486
942	5.75854	3.0957735	62.2784	61.9270	7.129037	31.36780
943	5.75138	3.0956324	62.4887	62.1360	7.130028	31.37278
944	5.74361	3.0955465	62.7021	62.3481	7.131066	31.37894
945	5.73389	3.0950615	62.9307	62.5754	7.132565	31.38244
946	5.72517	3.0950740	63.1532	62.7967	7.133674	31.39058
947	5.71786	3.0951662	63.3696	63.0118	7.134561	31.39832
948	5.71121	3.0953383	63.5892	63.2301	7.135324	31.40634
949	5.70521	3.0953999	63.8057	63.4454	7.136060	31.41251
950	5.70038	3.0954614	64.0312	63.6695	7.136649	31.41760
951	5.69766	3.0954983	64.2446	63.8817	7.136981	31.42045
952	5.69544	3.0953142	64.4580	64.0938	7.137365	31.42034
953	5.69328	3.0955599	64.6714	64.3061	7.137517	31.42502
954	5.69156	3.0954310	64.8848	64.5182	7.137808	31.42506
955	5.69031	3.0955171	65.0921	64.7243	7.137928	31.42711
956	5.68970	3.0955294	65.3086	64.9396	7.138003	31.42770
957	5.68970	3.0958427	65.5158	65.1456	7.137843	31.43112
958	5.68910	3.0962543	65.7081	65.3367	7.137708	31.43622
959	5.68824	3.0963956	65.9092	65.5367	7.137748	31.43851
960	5.68754	3.0964326	66.1255	65.7517	7.137823	31.43948
961	5.68512	3.0968442	66.3207	65.9457	7.137919	31.44626
962	5.68064	3.0983186	66.4792	66.1033	7.137719	31.46693
963	5.67832	3.1031429	66.5587	66.1824	7.135480	31.52326
964	5.68059	3.1041142	66.5647	66.1884	7.134681	31.53206
965	5.70637	3.1039172	66.5528	66.1765	7.131503	31.50574
966	5.73968	3.1045563	66.5711	66.1947	7.126933	31.48180
967	5.75960	3.1045007	66.5743	66.1979	7.124431	31.46260
968	5.76974	3.1044146	66.5652	66.1889	7.123188	31.45219
969	5.78029	3.1050846	66.5685	66.1921	7.121498	31.44987
970	5.78558	3.1051153	66.5746	66.1982	7.120810	31.44528
971	5.79043	3.1049124	66.5779	66.2015	7.120301	31.43849
972	5.79447	3.1052936	66.5871	66.2106	7.119589	31.43900
973	5.80184	3.1049676	66.5842	66.2078	7.118824	31.42849
974	5.80830	3.1046601	66.5842	66.2077	7.118164	31.41903
975	5.81052	3.1050843	66.5966	66.2201	7.117661	31.42171
976	5.80729	3.1049983	66.6028	66.2262	7.118116	31.42375
977	5.80133	3.1049738	66.6029	66.2264	7.118885	31.42902
978	5.79997	3.1052320	66.6061	66.2295	7.118923	31.43318
979	5.79674	3.1049677	66.6092	66.2326	7.119471	31.43322
980	5.79553	3.1050046	66.6156	66.2389	7.119606	31.43476
981	5.79800	3.1051767	66.6157	66.2391	7.119202	31.43439
982	5.79654	3.1049369	66.6219	66.2452	7.119513	31.43306
983	5.79947	3.1050660	66.6190	66.2423	7.119074	31.43178
984	5.80366	3.1051152	66.6221	66.2454	7.118517	31.42843
985	5.80406	3.1049368	66.6283	66.2516	7.118559	31.42606
986	5.80588	3.1046970	66.6071	66.2305	7.118453	31.42169
987	5.80886	3.1042051	66.5524	66.1761	7.118330	31.41344
988	5.80997	3.1044080	66.4550	66.0793	7.118081	31.41472
989	5.80275	3.1045986	66.3454	65.9703	7.118896	31.42363
990	5.79755	3.1036149	66.2024	65.8281	7.120066	31.41752
991	5.80143	3.1037316	66.0287	65.6555	7.119508	31.41529
992	5.80628	3.1042603	65.8674	65.4951	7.118613	31.41678
993	5.80886	3.1046475	65.6725	65.3013	7.118080	31.41881
994	5.80870	3.1060002	65.4866	65.1165	7.117389	31.43418
995	5.80820	3.1082450	65.2889	64.9199	7.116277	31.45988
996	5.80729	3.1088048	65.0909	64.7231	7.116096	31.46709
997	5.80845	3.1089216	64.8930	64.5263	7.115884	31.46741
998	5.80951	3.1089277	64.6890	64.3236	7.115741	31.46659
999	5.80977	3.1086877	64.4819	64.1176	7.115830	31.46376
1000	5.80643	3.1083616	64.2780	63.9149	7.116418	31.46331
1001	5.79406	3.1081526	64.0647	63.7029	7.118091	31.47260
1002	5.77822	3.1079497	63.8545	63.4939	7.120203	31.48520
1003	5.76722	3.1078636	63.6323	63.2730	7.121639	31.49460
1004	5.76127	3.1079620	63.4315	63.0733	7.122339	31.50136
1005	5.75627	3.1090692	63.2090	62.8521	7.122388	31.51854
1006	5.75607	3.1101335	62.9928	62.6372	7.121852	31.53077
1007	5.76071	3.1109333	62.7856	62.4312	7.120840	31.53551
1008	5.76560	3.1116777	62.5757	62.2225	7.119826	31.53938
1009	5.76893	3.1119053	62.3564	62.0045	7.119280	31.53893
1010	5.76853	3.1116099	62.1462	61.7955	7.119481	31.53609
1011	5.76540	3.1118006	61.9301	61.5806	7.119773	31.54126
1012	5.76449	3.1114621	61.7169	61.3687	7.120060	31.53841
1013	5.77024	3.1108405	61.4946	61.1477	7.119651	31.52617
1014	5.78533	3.1105203	61.2876	60.9419	7.117900	31.50860
1015	5.80461	3.1102247	61.0712	60.7267	7.115605	31.48740
1016	5.82451	3.1100768	60.8520	60.5088	7.113156	31.46731
1017	5.84270	3.1099904	60.6358	60.2938	7.110892	31.44951
1018	5.85387	3.1101933	60.4197	60.0789	7.109367	31.44149
1019	5.86009	3.1105439	60.2064	59.8669	7.108393	31.43972
1020	5.86510	3.1109560	59.9873	59.6491	7.107540	31.43978
1021	5.86752	3.1112574	59.7710	59.4340	7.107071	31.44100
1022	5.86899	3.1114912	59.5487	59.2130	7.106759	31.44235
1023	5.87202	3.1115772	59.3323	58.9979	7.106326	31.44060
1024	5.87835	3.1118171	59.1010	58.7679	7.105396	31.43751
1025	5.88619	3.1125554	58.8878	58.5560	7.104016	31.43857
1026	5.89291	3.1124076	58.6686	58.3380	7.103237	31.43077
1027	5.89757	3.1120444	58.4585	58.1291	7.102833	31.42249
1028	5.90268	3.1115827	58.2362	57.9081	7.102421	31.41269
1029	5.90830	3.1105427	58.0169	57.6901	7.102246	31.39596
1030	5.91164	3.1096136	57.8006	57.4750	7.102301	31.38259
1031	5.91447	3.1093613	57.5815	57.2572	7.102068	31.37725
1032	5.91680	3.1095396	57.3622	57.0391	7.101677	31.37718
1033	5.91402	3.1095211	57.1427	56.8209	7.102034	31.37966
1034	5.90870	3.1094226	56.9296	56.6090	7.102752	31.38360
1035	5.90374	3.1093611	56.7103	56.3910	7.103407	31.38761
1036	5.90066	3.1091150	56.4972	56.1791	7.103920	31.38783
1037	5.89792	3.1086536	56.2719	55.9551	7.104500	31.38532
1038	5.89782	3.1084198	56.0557	55.7402	7.104630	31.38290
1039	5.89894	3.1080568	55.8332	55.5189	7.104673	31.37792
1040	5.89838	3.1076815	55.6232	55.3102	7.104933	31.37435
1041	5.89701	3.1073247	55.3949	55.0831	7.105286	31.37174
1042	5.89716	3.1071832	55.1816	54.8711	7.105336	31.37012
1043	5.89585	3.1069433	54.9622	54.6530	7.105622	31.36876
1044	5.89266	3.1067034	54.7401	54.4322	7.106146	31.36915
1045	5.88952	3.1064943	54.5177	54.2111	7.106646	31.36982
1046	5.88821	3.1063528	54.3045	53.9990	7.106882	31.36956
1047	5.88679	3.1061129	54.0853	53.7811	7.107181	31.36830
1048	5.88720	3.1061190	53.8689	53.5660	7.107122	31.36810
1049	5.88851	3.1062050	53.6497	53.3480	7.106906	31.36794
1050	5.88558	3.1059098	53.4365	53.1360	7.107426	31.36747
1051	5.88345	3.1058421	53.2173	52.9181	7.107725	31.36879
1052	5.88578	3.1058174	52.9979	52.7000	7.107439	31.36646
1053	5.88629	3.1057313	52.7817	52.4850	7.107415	31.36513
1054	5.88578	3.1056882	52.5656	52.2702	7.107496	31.36522
1055	5.88452	3.1056451	52.3464	52.0522	7.107674	31.36601
1056	5.88356	3.1056696	52.1302	51.8372	7.107778	31.36728
1057	5.88249	3.1056204	51.8986	51.6070	7.107933	31.36782
1058	5.88371	3.1057002	51.6823	51.3920	7.107733	31.36769
1059	5.88401	3.1057616	51.4631	51.1740	7.107658	31.36820
1060	5.88270	3.1056140	51.2409	50.9530	7.107896	31.36788
1061	5.88447	3.1056201	51.0246	50.7380	7.107664	31.36641
1062	5.88700	3.1055523	50.7992	50.5139	7.107374	31.36341
1063	5.89114	3.1057613	50.5890	50.3049	7.106736	31.36200
1064	5.89418	3.1058412	50.3638	50.0810	7.106305	31.36018
1065	5.89413	3.1056997	50.1383	49.8568	7.106380	31.35875
1066	5.89732	3.1058164	49.9252	49.6449	7.105911	31.35720
1067	5.90238	3.1059024	49.7090	49.4300	7.105221	31.35357
1068	5.90486	3.1059638	49.4806	49.2028	7.104870	31.35207
1069	5.90612	3.1060252	49.2674	48.9909	7.104673	31.35168
1070	5.90708	3.1059944	49.0390	48.7638	7.104563	31.35056
1071	5.90875	3.1061726	48.8197	48.5458	7.104254	31.35110
1072	5.90840	3.1062033	48.5974	48.3248	7.104278	31.35188
1073	5.90794	3.1062155	48.3840	48.1126	7.104324	31.35254
1074	5.90977	3.1062585	48.1586	47.8885	7.104067	31.35144
1075	5.91215	3.1063814	47.9486	47.6797	7.103697	31.35070
1076	5.91250	3.1064613	47.7354	47.4677	7.103606	31.35137
1077	5.91169	3.1064674	47.5131	47.2466	7.103701	31.35229
1078	5.91093	3.1065534	47.2877	47.0226	7.103747	31.35406
1079	5.90921	3.1066518	47.0685	46.8046	7.103909	31.35686
1080	5.90734	3.1066456	46.8492	46.5866	7.104144	31.35863
1081	5.90597	3.1065287	46.6330	46.3716	7.104373	31.35869
1082	5.90460	3.1064917	46.4076	46.1474	7.104560	31.35965
1083	5.90283	3.1064363	46.1911	45.9322	7.104808	31.36078
1084	5.90202	3.1065531	45.9659	45.7083	7.104845	31.36294
1085	5.90106	3.1066822	45.7528	45.4964	7.104895	31.36538
1086	5.89954	3.1067314	45.5273	45.2722	7.105057	31.36744
1087	5.89919	3.1067620	45.3110	45.0572	7.105081	31.36822
1088	5.89868	3.1065836	45.0918	44.8392	7.105233	31.36680
1089	5.89975	3.1064052	44.8726	44.6212	7.105186	31.36392
1090	5.90050	3.1061100	44.6532	44.4031	7.105239	31.36002
1091	5.90010	3.1061161	44.4339	44.1850	7.105282	31.36057
1092	5.89803	3.1062328	44.2086	43.9611	7.105479	31.36391
1093	5.89560	3.1062328	43.9894	43.7430	7.105782	31.36626
1094	5.89362	3.1061159	43.7731	43.5280	7.106087	31.36689
1095	5.89398	3.1059621	43.5510	43.3072	7.106117	31.36495
1096	5.89504	3.1058759	43.3254	43.0828	7.106023	31.36311
1097	5.89489	3.1057775	43.1062	42.8649	7.106088	31.36225
1098	5.89484	3.1057590	42.8838	42.6438	7.106099	31.36220
1099	5.89463	3.1056667	42.6645	42.4257	7.106168	31.36146
1100	5.89433	3.1056174	42.4545	42.2169	7.106227	31.36129
1101	5.89433	3.1055805	42.2319	41.9956	7.106242	31.36098
1102	5.89499	3.1055496	42.0068	41.7718	7.106170	31.36013
1103	5.89560	3.1056172	41.7904	41.5566	7.106053	31.36043
1104	5.89646	3.1056971	41.5711	41.3386	7.105898	31.36063
1105	5.89651	3.1058446	41.3519	41.1206	7.105810	31.36233
1106	5.89605	3.1059306	41.1416	40.9115	7.105818	31.36382
1107	5.89656	3.1059613	40.9163	40.6875	7.105733	31.36380
1108	5.89838	3.1059059	40.6848	40.4573	7.105526	31.36160
1109	5.90000	3.1058382	40.4656	40.2393	7.105352	31.35944
1110	5.90268	3.1057889	40.2555	40.0304	7.105033	31.35650
1111	5.90410	3.1057580	40.0269	39.8031	7.104865	31.35496
1112	5.90471	3.1057764	39.8017	39.5792	7.104773	31.35470
1113	5.90663	3.1058132	39.5794	39.3582	7.104506	31.35344
1114	5.90870	3.1059915	39.3539	39.1339	7.104146	31.35361
1115	5.90901	3.1059914	39.1255	38.9069	7.104102	31.35344
1116	5.90835	3.1066124	38.8879	38.6706	7.103858	31.36110
1117	5.90880	3.1074119	38.6714	38.4554	7.103381	31.36970
1118	5.90987	3.1075471	38.4523	38.2375	7.103171	31.37033
1119	5.91073	3.1077623	38.2240	38.0105	7.102946	31.37204
1120	5.91235	3.1078238	38.0015	37.7893	7.102704	31.37133
1121	5.91883	3.1079405	37.7792	37.5682	7.101819	31.36673
1122	5.92956	3.1080141	37.5599	37.3501	7.100419	31.35771
1123	5.94207	3.1081185	37.3406	37.1321	7.098778	31.34739
1124	5.95874	3.1081490	37.1093	36.9021	7.096651	31.33240
1125	5.97780	3.1080811	36.8898	36.6839	7.094274	31.31411
1126	5.99960	3.1080255	36.6705	36.4658	7.091545	31.29344
1127	6.02954	3.1080559	36.4451	36.2417	7.087747	31.26625
1128	6.07500	3.1081414	36.2228	36.0207	7.081967	31.22541
1129	6.11079	3.1084117	36.0035	35.8026	7.077316	31.19559
1130	6.14391	3.1085589	35.7780	35.5784	7.073067	31.16691
1131	6.17059	3.1087308	35.5589	35.3605	7.069618	31.14444
1132	6.19203	3.1088228	35.3364	35.1393	7.066871	31.12591
1133	6.20839	3.1091178	35.1172	34.9213	7.064660	31.11430
1134	6.22757	3.1092591	34.8981	34.7034	7.062176	31.09843
1135	6.24644	3.1093819	34.6726	34.4792	7.059739	31.08263
1136	6.26257	3.1095908	34.4501	34.2580	7.057604	31.07032
1137	6.27681	3.1098182	34.2248	34.0339	7.055697	31.05993
1138	6.29060	3.1096457	34.0056	33.8160	7.054052	31.04555
1139	6.30475	3.1093256	33.7800	33.5917	7.052436	31.02922
1140	6.31936	3.1092577	33.5577	33.3707	7.050634	31.01526
1141	6.33214	3.1094421	33.3415	33.1556	7.048935	31.00575
1142	6.34298	3.1092635	33.1222	32.9376	7.047663	30.99402
1143	6.35245	3.1091649	32.9000	32.7166	7.046523	30.98443
1144	6.36043	3.1093801	32.6744	32.4923	7.045411	30.97965
1145	6.36728	3.1093800	32.4491	32.2683	7.044548	30.97352
1146	6.37097	3.1091645	32.2298	32.0502	7.044191	30.96790
1147	6.37440	3.1087892	31.9952	31.8169	7.043947	30.96076
1148	6.37716	3.1079648	31.7790	31.6020	7.044013	30.94927
1149	6.37890	3.1075219	31.5566	31.3809	7.044015	30.94292
1150	6.38258	3.1073557	31.3374	31.1629	7.043633	30.93784
1151	6.38719	3.1070174	31.1150	30.9417	7.043223	30.93004
1152	6.39042	3.1066052	30.8894	30.7174	7.043023	30.92268
1153	6.39328	3.1065129	30.6733	30.5025	7.042706	30.91916
1154	6.39682	3.1066911	30.4418	30.2723	7.042169	30.91803
1155	6.40163	3.1070169	30.2194	30.0512	7.041397	30.91735
1156	6.41039	3.1069491	29.9940	29.8271	7.040331	30.90877
1157	6.42238	3.1069858	29.7686	29.6030	7.038808	30.89842
1158	6.43662	3.1070471	29.5433	29.3789	7.036991	30.88630
1159	6.44990	3.1074467	29.3179	29.1547	7.035125	30.87878
1160	6.46149	3.1074896	29.0893	28.9274	7.033651	30.86887
1161	6.47093	3.1077231	28.8700	28.7094	7.032350	30.86300
1162	6.48103	3.1075077	28.6325	28.4732	7.031191	30.85161
1163	6.48617	3.1075199	28.3796	28.2218	7.030538	30.84723
1164	6.48955	3.1082579	28.1572	28.0006	7.029740	30.85237
1165	6.49725	3.1085099	27.9319	27.7766	7.028647	30.84829
1166	6.50285	3.1082576	27.7065	27.5525	7.028071	30.84057
1167	6.51091	3.1082267	27.4841	27.3313	7.027076	30.83306
1168	6.51784	3.1078206	27.2585	27.1070	7.026410	30.82245
1169	6.52256	3.1078143	27.0363	26.8860	7.025819	30.81822
1170	6.52832	3.1075497	26.8141	26.6651	7.025230	30.81023
1171	6.53417	3.1071990	26.5885	26.4407	7.024670	30.80121
1172	6.53962	3.1072789	26.3571	26.2106	7.023946	30.79729
1173	6.54553	3.1074263	26.1377	25.9925	7.023131	30.79368
1174	6.55134	3.1075369	25.9122	25.7682	7.022346	30.78976
1175	6.55622	3.1075491	25.6870	25.5443	7.021727	30.78560
1176	6.56100	3.1074567	25.4615	25.3201	7.021172	30.78039
1177	6.56475	3.1074751	25.2329	25.0928	7.020691	30.77732
1178	6.56784	3.1078133	25.0078	24.8689	7.020132	30.77835
1179	6.57144	3.1076656	24.7853	24.6477	7.019753	30.77359
1180	6.57504	3.1074133	24.5508	24.4145	7.019426	30.76770
1181	6.57766	3.1071057	24.3223	24.1873	7.019248	30.76207
1182	6.57931	3.1067181	24.1061	23.9723	7.019232	30.75645
1183	6.58039	3.1066996	23.8746	23.7420	7.019102	30.75538
1184	6.58213	3.1068963	23.6490	23.5177	7.018781	30.75607
1185	6.58476	3.1076035	23.4267	23.2967	7.018096	30.76155
1186	6.58815	3.1077818	23.2075	23.0787	7.017579	30.76055
1187	6.59263	3.1078493	22.9790	22.8515	7.016983	30.75737
1188	6.59690	3.1076339	22.7566	22.6304	7.016554	30.75127
1189	6.60199	3.1071049	22.5343	22.4092	7.016180	30.74101
1190	6.60189	3.1066682	22.3027	22.1790	7.016406	30.73643
1191	6.60132	3.1063914	22.0803	21.9579	7.016610	30.73401
1192	6.60369	3.1062744	21.8519	21.7308	7.016369	30.73071
1193	6.60616	3.1058254	21.6203	21.5004	7.016281	30.72368
1194	6.60668	3.1052719	21.3952	21.2765	7.016489	30.71727
1195	6.60642	3.1049460	21.1665	21.0491	7.016679	30.71404
1196	6.60673	3.1043618	20.9412	20.8251	7.016927	30.70747
1197	6.60704	3.1035010	20.7095	20.5947	7.017314	30.69789
1198	6.60580	3.1029108	20.4901	20.3766	7.017759	30.69264
1199	6.60482	3.1026526	20.2617	20.1494	7.018005	30.69079
1200	6.60549	3.1025296	20.0303	19.9193	7.017978	30.68895
1201	6.60482	3.1023820	19.8109	19.7011	7.018131	30.68804
1202	6.60235	3.1024926	19.5794	19.4709	7.018378	30.69157
1203	6.59983	3.1027077	19.3479	19.2407	7.018580	30.69629
1204	6.59772	3.1030581	19.1255	19.0196	7.018664	30.70212
1205	6.59253	3.1036789	18.8911	18.7864	7.018996	30.71369
1206	6.57637	3.1047980	18.6595	18.5561	7.020445	30.74055
1207	6.54995	3.1050380	18.4339	18.3318	7.023615	30.76706
1208	6.51430	3.1050752	18.2087	18.1078	7.028041	30.79969
1209	6.47703	3.1044791	17.9772	17.8777	7.032990	30.82687
1210	6.44421	3.1045039	17.7485	17.6503	7.037075	30.85691
1211	6.41741	3.1049222	17.5140	17.4170	7.040212	30.88588
1212	6.40219	3.1047132	17.2948	17.1990	7.042216	30.89746
1213	6.39267	3.1044489	17.0694	16.9749	7.043538	30.90329
1214	6.38366	3.1046088	16.8410	16.7478	7.044580	30.91332
1215	6.37567	3.1046272	16.6124	16.5205	7.045566	30.92087
1216	6.36672	3.1045965	16.3869	16.2962	7.046698	30.92877
1217	6.36140	3.1046764	16.1677	16.0782	7.047320	30.93458
1218	6.36063	3.1049162	15.9268	15.8387	7.047289	30.93803
1219	6.36370	3.1049161	15.7077	15.6209	7.046900	30.93534
1220	6.36871	3.1050143	15.4792	15.3936	7.046217	30.93198
1221	6.37102	3.1047990	15.2505	15.1662	7.046033	30.92762
1222	6.36831	3.1045654	15.0221	14.9390	7.046486	30.92762
1223	6.36442	3.1042087	14.7998	14.7179	7.047149	30.92732
1224	6.36094	3.1039136	14.5774	14.4968	7.047730	30.92733
1225	6.35608	3.1043870	14.3459	14.2666	7.048094	30.93707
1226	6.34697	3.1048604	14.1144	14.0364	7.048990	30.95066
1227	6.33409	3.1049773	13.8982	13.8213	7.050541	30.96376
1228	6.31742	3.1049467	13.6695	13.5940	7.052641	30.97869
1229	6.30076	3.1050144	13.4379	13.3637	7.054691	30.99471
1230	6.28386	3.1051252	13.2065	13.1335	7.056750	31.01144
1231	6.26624	3.1049777	12.9780	12.9063	7.059031	31.02598
1232	6.25144	3.1051746	12.7557	12.6852	7.060784	31.04176
1233	6.23818	3.1051869	12.5302	12.4610	7.062439	31.05412
1234	6.22619	3.1052423	12.3109	12.2429	7.063912	31.06579
1235	6.21456	3.1053285	12.0886	12.0218	7.065324	31.07747
1236	6.20243	3.1053900	11.8692	11.8036	7.066812	31.08935
1237	6.19066	3.1055991	11.6529	11.5885	7.068180	31.10254
1238	6.17695	3.1054824	11.4243	11.3612	7.069958	31.11391
1239	6.16463	3.1053041	11.1991	11.1372	7.071595	31.12333
1240	6.15485	3.1053041	10.9796	10.9190	7.072820	31.13240
1241	6.14783	3.1054825	10.7419	10.6826	7.073608	31.14093
1242	6.14146	3.1057776	10.5105	10.4525	7.074252	31.15015
1243	6.13541	3.1060113	10.2912	10.2344	7.074890	31.15840
1244	6.12839	3.1063557	10.0657	10.0102	7.075592	31.16878
1245	6.12401	3.1066324	9.8373	9.7831	7.075996	31.17598
1246	6.12167	3.1068968	9.6117	9.5587	7.076150	31.18117
1247	6.11872	3.1070690	9.3833	9.3315	7.076428	31.18590
1248	6.11623	3.1071304	9.1518	9.1013	7.076705	31.18898
1249	6.11206	3.1073395	8.9385	8.8892	7.077118	31.19524
1250	6.10473	3.1075056	8.7039	8.6559	7.077949	31.20393
1251	6.09858	3.1076962	8.4815	8.4348	7.078621	31.21181
1252	6.09345	3.1080161	8.2592	8.2136	7.079099	31.22019
1253	6.08745	3.1082252	8.0368	7.9925	7.079742	31.22814
1254	6.08440	3.1084035	7.8053	7.7622	7.080029	31.23304
1255	6.08491	3.1085511	7.5798	7.5380	7.079884	31.23432
1256	6.08623	3.1086002	7.3391	7.2986	7.079687	31.23377
1257	6.08806	3.1086678	7.1136	7.0744	7.079417	31.23294
1258	6.09172	3.1084893	6.8882	6.8503	7.079043	31.22769
1259	6.09848	3.1086922	6.6536	6.6169	7.078083	31.22383
1260	6.10540	3.1087843	6.4311	6.3957	7.077160	31.21859
1261	6.10621	3.1088150	6.2027	6.1686	7.077037	31.21829
1262	6.10275	3.1090057	5.9742	5.9413	7.077369	31.22370
1263	6.09970	3.1089626	5.7487	5.7171	7.077770	31.22613
1264	6.09848	3.1087841	5.5141	5.4837	7.078010	31.22539
1265	6.09757	3.1089932	5.2918	5.2626	7.078013	31.22866
1266	6.09421	3.1099713	5.0633	5.0354	7.077928	31.24272
1267	6.09091	3.1113865	4.8347	4.8081	7.077611	31.26160
1268	6.09223	3.1117987	4.6094	4.5840	7.077228	31.26507
1269	6.09446	3.1119340	4.3839	4.3598	7.076873	31.26462
1270	6.09782	3.1117123	4.1585	4.1357	7.076559	31.25917
1271	6.10255	3.1116815	3.9391	3.9175	7.075976	31.25457
1272	6.10773	3.1111829	3.7198	3.6993	7.075575	31.24436
1273	6.11587	3.1111766	3.5034	3.4841	7.074550	31.23690
1274	6.12254	3.1115334	3.2870	3.2689	7.073524	31.23482
1275	6.12895	3.1115579	3.0800	3.0631	7.072701	31.22929
1276	6.13261	3.1115885	2.8911	2.8752	7.072221	31.22635
1277	6.13205	3.1116193	2.6869	2.6721	7.072271	31.22730
1278	6.12676	3.1114039	2.5012	2.4875	7.073042	31.22987
1279	6.12269	3.1112685	2.2939	2.2813	7.073619	31.23221
1280	6.12315	3.1114407	2.0837	2.0722	7.073469	31.23380
1281	6.12447	3.1126837	1.8796	1.8692	7.072660	31.24648
1282	6.12544	3.1143394	1.6633	1.6541	7.071684	31.26408
1283	6.12681	3.1150226	1.4684	1.4603	7.071157	31.27049
1284	6.12676	3.1154658	1.2825	1.2754	7.070932	31.27555
1285	6.22864	3.1154955	1.1089	1.1028	7.058132	31.18227
1286	6.58702	3.1156704	0.9472	0.9420	7.013307	30.85817
1287	6.82381	3.1157541	0.7798	0.7755	6.983904	30.64663
1288	6.87402	3.1162708	0.6031	0.5998	6.977440	30.60754
1289	6.93659	3.1169412	0.4417	0.4393	6.969386	30.55923
1290	7.05832	3.1172601	0.2893	0.2877	6.954238	30.45489
1291	7.25552	3.1141367	0.1797	0.1787	6.931549	30.24791
1292	7.11460	3.1125563	0.0853	0.0848	6.949604	30.35458
1293	6.69240	3.1129729	0.0884	0.0879	7.001546	30.73423
1294	6.49227	3.1157573	0.0915	0.0910	7.025037	30.94521
1295	6.53695	3.1227169	0.0856	0.0851	7.015983	30.98113
1296	6.74013	3.1252786	0.0856	0.0851	6.989522	30.82568
1297	6.98289	2.1494926	0.0857	0.0853	7.441978	20.28643
1298	7.17790	0.6621015	0.0796	0.0791	8.144872	5.64703
1299	7.21878	0.6585970	0.0858	0.0854	8.138748	5.60838
1300	7.21089	0.7765243	0.0830	0.0825	8.083256	6.69375
1301	7.20483	0.6937400	0.0799	0.0795	8.124464	5.93213
1302	7.19304	0.6743699	0.0892	0.0887	8.136061	5.75672
1303	7.17973	0.6316809	0.0801	0.0797	8.159185	5.36929
1304	7.16799	0.6269378	0.0863	0.0858	8.163726	5.32794
1305	7.15646	0.6388452	0.0862	0.0857	8.160202	5.43819
1306	7.14540	0.5784207	0.0804	0.0800	8.191425	4.89114
1307	7.13555	0.5275773	0.0836	0.0832	8.217720	4.43431
1308	7.12549	0.4192573	0.0775	0.0770	8.271246	3.47146
1309	7.11543	0.4094090	0.0837	0.0832	8.277901	3.38570
1310	7.10564	0.3806057	0.0898	0.0893	8.293445	3.13374
1311	7.09418	0.3674948	0.0808	0.0804	8.301910	3.02009
1312	7.07492	0.3307282	0.0839	0.0835	8.323038	2.70169
1313	7.06414	0.3408260	0.0870	0.0865	8.320474	2.79021
1314	7.06034	0.3708305	0.0841	0.0836	8.307121	3.05223
1315	7.05618	0.3663922	0.0841	0.0836	8.310049	3.01377
1316	7.04281	0.3700814	0.0782	0.0777	8.310991	3.04722
1317	7.03434	0.3392693	0.0904	0.0899	8.327212	2.77908
1318	7.02669	0.3190585	0.0814	0.0810	8.338241	2.60427
1319	7.01926	0.2977662	0.0815	0.0810	8.349709	2.42086
1320	7.01058	0.2935027	0.0816	0.0811	8.353463	2.38474
1321	7.00174	0.2715736	0.0847	0.0842	8.365480	2.19699
1322	6.99380	0.2568434	0.0877	0.0872	8.373944	2.07156
1323	6.98689	0.2417101	0.0818	0.0814	8.382367	1.94309
1324	6.98102	0.2260463	0.0849	0.0845	8.390802	1.81059
1325	6.97640	0.2125488	0.0880	0.0875	8.397963	1.69686
1326	6.97224	0.2005421	0.0820	0.0815	8.404326	1.59608
1327	6.96892	0.1831953	0.0850	0.0846	8.412938	1.45105
1328	6.96757	0.1734807	0.0791	0.0786	8.417639	1.37018
1329	6.96664	0.2125826	0.0884	0.0879	8.399955	1.69762
1330	6.96606	0.2745212	0.0823	0.0818	8.371383	2.22454
1331	6.96653	0.2883480	0.0764	0.0760	8.364830	2.34336
1332	6.96799	0.2946220	0.0825	0.0820	8.361599	2.39733
1333	6.96856	0.2805200	0.0856	0.0851	8.368076	2.27589
1334	6.96887	0.2587180	0.0856	0.0852	8.378169	2.08906
1335	6.96975	0.2404217	0.0856	0.0852	8.386474	1.93310
1336	6.97027	0.2251732	0.0796	0.0792	8.393411	1.80376
1337	6.97079	0.2220774	0.0828	0.0823	8.394732	1.77755
1338	6.97219	0.2144659	0.0889	0.0884	8.397947	1.71323
1339	6.97302	0.2149530	0.0831	0.0826	8.397552	1.71729
1340	6.97338	0.2104036	0.0860	0.0855	8.399568	1.67894
1341	6.97432	0.2089756	0.0801	0.0796	8.400031	1.66687
1342	6.97510	0.2103259	0.0833	0.0829	8.399251	1.67820
1343	6.97769	0.2135833	0.0802	0.0798	8.397220	1.70551
1344	6.98377	0.2110824	0.0865	0.0860	8.397119	1.68415
1345	6.99115	0.2354106	0.0834	0.0830	8.384405	1.88937
1346	6.99567	0.2567058	0.0835	0.0831	8.373626	2.07027
1347	6.99837	0.2605285	0.0806	0.0801	8.371300	2.10274
1348	7.00195	0.2538296	0.0867	0.0862	8.373675	2.04537
1349	7.00642	0.2289258	0.0836	0.0831	8.384264	1.83361
1350	7.01047	0.2155688	0.0838	0.0834	8.389572	1.72062
1351	7.01339	0.2035948	0.0870	0.0865	8.394459	1.61979
1352	7.01520	0.2095662	0.0870	0.0865	8.391353	1.66987
1353	7.01666	0.2242155	0.0840	0.0835	8.384332	1.79326
1354	7.01848	0.2770771	0.0871	0.0867	8.359511	2.24308
1355	7.02014	0.2881148	0.0872	0.0867	8.354033	2.33773
1356	7.02233	0.2740574	0.0872	0.0867	8.360132	2.21696
1357	7.02664	0.2503013	0.0842	0.0837	8.370264	2.01387
1358	7.03246	0.2319652	0.0843	0.0839	8.377530	1.85795
1359	7.03922	0.1978760	0.0843	0.0838	8.391757	1.57068
1360	7.04547	0.1817894	0.0844	0.0839	8.397787	1.43615
1361	7.05171	0.1756177	0.0875	0.0870	8.399297	1.38460
1362	7.05712	0.1734973	0.0846	0.0841	8.399141	1.36679
1363	7.06159	0.1712924	0.0846	0.0842	8.399215	1.34834
1364	7.06560	0.1666230	0.0786	0.0782	8.400495	1.30953
1365	7.06919	0.1608699	0.0846	0.0842	8.402345	1.26188
1366	7.07372	0.1554938	0.0818	0.0813	8.403826	1.21741
1367	7.08095	0.1512832	0.0849	0.0844	8.404220	1.18253
1368	7.08731	0.1505250	0.0819	0.0815	8.403248	1.17609
1369	7.09340	0.1539321	0.0911	0.0906	8.400465	1.20388
1370	7.09949	0.1578662	0.0790	0.0785	8.397445	1.23603
1371	7.10543	0.1628932	0.0821	0.0817	8.393965	1.27724
1372	7.11179	0.1689997	0.0882	0.0877	8.389912	1.32743
1373	7.11866	0.1978256	0.0853	0.0848	8.375477	1.56667
1374	7.12888	0.2386386	0.0915	0.0910	8.354781	1.90916
1375	7.14149	0.2423254	0.0853	0.0848	8.350523	1.93965
1376	7.14931	0.2536337	0.0883	0.0879	8.343746	2.03503
1377	7.15531	0.2640912	0.0885	0.0880	8.337723	2.12354
1378	7.16183	0.2550662	0.0885	0.0880	8.340548	2.04645
1379	7.16773	0.2436045	0.0885	0.0880	8.344603	1.94900
1380	7.17414	0.2333652	0.0827	0.0822	8.347978	1.86218
1381	7.18197	0.2238148	0.0858	0.0853	8.350737	1.78137
1382	7.18922	0.2152370	0.0827	0.0822	8.353157	1.70901
1383	7.19502	0.2078383	0.0828	0.0824	8.355329	1.64680
1384	7.19993	0.2185922	0.0797	0.0792	8.349454	1.73661
1385	7.20463	0.2561831	0.0858	0.0854	8.331359	2.05340
1386	7.20891	0.2676069	0.0890	0.0885	8.325255	2.15015
1387	7.21340	0.2753450	0.0860	0.0855	8.320794	2.21574
1388	7.21867	0.2772086	0.0799	0.0795	8.318873	2.23129
1389	7.22515	0.2621437	0.0892	0.0887	8.324475	2.10274
1390	7.23137	0.2480556	0.0924	0.0919	8.329657	1.98304
1391	7.23628	0.2357583	0.0862	0.0857	8.334264	1.87900
1392	7.23978	0.2253735	0.0863	0.0858	8.338271	1.79149
1393	7.24464	0.2162894	0.0834	0.0829	8.341399	1.71509
1394	7.25112	0.2082296	0.0772	0.0768	8.343723	1.64741
1395	7.25756	0.2017464	0.0833	0.0829	8.345336	1.59305
1396	7.26257	0.2223418	0.0774	0.0769	8.335017	1.76489
1397	7.26671	0.2638911	0.0866	0.0862	8.315281	2.11505
1398	7.27094	0.2697759	0.0835	0.0831	8.311736	2.16474
