Scan Count	Temperature [ITS-90, deg C]	Conductivity [S/m]	Depth [salt water, m]	Oxygen Saturation, Weiss [ml/l]	Salinity, Practical [PSU]
1	16.48411	-0.0000466	-0.1589	6.826954	0.00000
2	16.48264	-0.0000435	-0.1588	6.827167	0.00000
3	16.48116	-0.0000435	-0.1618	6.827380	0.00000
4	16.47989	-0.0000527	-0.1559	6.827564	0.00000
5	16.47821	-0.0000435	-0.1558	6.827806	0.00000
6	16.47674	-0.0000496	-0.1558	6.828019	0.00000
7	16.47500	-0.0024167	-0.0875	6.828271	0.00000
8	16.47359	0.0002958	-0.0437	6.828103	0.00897
9	16.47238	-0.0000435	-0.1528	6.828648	0.00000
10	16.47084	-0.0000496	-0.1559	6.828871	0.00000
11	16.46943	-0.0000496	-0.1783	6.829074	0.00000
12	16.46796	-0.0002562	0.0820	6.829287	0.00000
13	16.46709	-0.0001915	0.1591	6.829413	0.00000
14	16.46575	-0.0000959	-0.1558	6.829607	0.00000
15	16.46347	-0.0000496	-0.1558	6.829936	0.00000
16	16.46166	-0.0000435	-0.1559	6.830197	0.00000
17	16.46005	-0.0000496	-0.1558	6.830430	0.00000
18	16.45838	-0.0000496	-0.1528	6.830672	0.00000
19	16.45643	-0.0000527	-0.1589	6.830953	0.00000
20	16.45476	-0.0000496	-0.1619	6.831195	0.00000
21	16.45295	-0.0000435	-0.1618	6.831456	0.00000
22	16.45174	-0.0000435	-0.1589	6.831631	0.00000
23	16.45067	-0.0000496	-0.1649	6.831785	0.00000
24	16.44873	-0.0000527	-0.1589	6.832066	0.00000
25	16.44692	-0.0000496	-0.1559	6.832328	0.00000
26	16.44511	-0.0000527	-0.1588	6.832589	0.00000
27	16.44042	-0.0000496	-0.1588	6.833267	0.00000
28	16.43540	-0.0000496	-0.1588	6.833993	0.00000
29	16.43332	-0.0000435	-0.1589	6.834294	0.00000
30	16.43065	-0.0000496	-0.1558	6.834681	0.00000
31	16.42362	-0.0000496	-0.1588	6.835698	0.00000
32	16.41719	-0.0000527	-0.1588	6.836628	0.00000
33	16.40936	-0.0000496	-0.1619	6.837761	0.00000
34	16.39150	-0.0000527	-0.1618	6.840348	0.00000
35	16.37552	-0.0000435	-0.1558	6.842664	0.00000
36	16.36931	-0.0000435	-0.1588	6.843565	0.00000
37	16.36790	-0.0000373	-0.1619	6.843768	0.00000
38	16.36777	-0.0000342	-0.1588	6.843788	0.00000
39	16.36737	-0.0000435	-0.1527	6.843846	0.00000
40	16.36717	-0.0000435	-0.1588	6.843875	0.00000
41	16.36550	-0.0000342	-0.1527	6.844117	0.00000
42	16.36463	-0.0000280	-0.1588	6.844243	0.00000
43	16.36436	-0.0000342	-0.1588	6.844282	0.00000
44	16.36416	-0.0000280	-0.1588	6.844311	0.00000
45	16.36389	-0.0000250	-0.1558	6.844350	0.00000
46	16.36403	-0.0000342	-0.1648	6.844330	0.00000
47	16.36416	-0.0000373	-0.1557	6.844311	0.00000
48	16.36436	-0.0000342	-0.1618	6.844282	0.00000
49	16.36429	-0.0000373	-0.1587	6.844291	0.00000
50	16.36423	-0.0000435	-0.1588	6.844301	0.00000
51	16.36323	-0.0000342	-0.1587	6.844447	0.00000
52	16.36129	-0.0000373	-0.1557	6.844728	0.00000
53	16.35688	-0.0000342	-0.1527	6.845367	0.00000
54	16.35300	-0.0000435	-0.1618	6.845929	0.00000
55	16.35087	-0.0000435	-0.1587	6.846239	0.00000
56	16.34973	-0.0000342	-0.1587	6.846404	0.00000
57	16.34946	-0.0000435	-0.1587	6.846443	0.00000
58	16.34940	-0.0000496	-0.1557	6.846453	0.00000
59	16.34926	-0.0000342	-0.1526	6.846472	0.00000
60	16.34906	-0.0000435	-0.1587	6.846501	0.00000
61	16.34853	-0.0000435	-0.1587	6.846579	0.00000
62	16.34759	-0.0000435	-0.1526	6.846714	0.00000
63	16.34679	-0.0000435	-0.1496	6.846831	0.00000
64	16.34506	-0.0000435	-0.1586	6.847083	0.00000
65	16.34425	-0.0000435	-0.1617	6.847199	0.00000
66	16.34025	-0.0000681	-0.1586	6.847780	0.00000
67	16.32476	-0.0000373	-0.1496	6.850029	0.00000
68	16.31195	-0.0000250	-0.1557	6.851891	0.00000
69	16.30868	-0.0000157	-0.1495	6.852366	0.00000
70	16.30874	-0.0000126	-0.1556	6.852356	0.00000
71	16.30914	-0.0000157	-0.1526	6.852298	0.00000
72	16.30988	-0.0000126	-0.1556	6.852191	0.00000
73	16.31021	-0.0000065	-0.1526	6.852143	0.00000
74	16.31081	-0.0000065	-0.1555	6.852055	0.00000
75	16.31128	-0.0000126	-0.1525	6.851988	0.00000
76	16.31128	-0.0000157	-0.1616	6.851988	0.00000
77	16.30981	-0.0000065	-0.1496	6.852201	0.00000
78	16.30921	-0.0000034	-0.1525	6.852288	0.00000
79	16.30941	-0.0000065	-0.1586	6.852259	0.00000
80	16.31008	-0.0000126	-0.1495	6.852162	0.00000
81	16.31028	-0.0000065	-0.1495	6.852133	0.00000
82	16.30828	-0.0000157	-0.1525	6.852424	0.00000
83	16.30141	-0.0000219	-0.1556	6.853422	0.00000
84	16.29600	-0.0000157	-0.1555	6.854208	0.00000
85	16.29400	-0.0000219	-0.1525	6.854499	0.00000
86	16.29287	-0.0000250	-0.1586	6.854664	0.00000
87	16.29260	-0.0000157	-0.1494	6.854702	0.00000
88	16.29227	-0.0000219	-0.1524	6.854751	0.00000
89	16.29220	-0.0000157	-0.1585	6.854761	0.00000
90	16.29134	-0.0000219	-0.1646	6.854887	0.00000
91	16.29200	-0.0000157	-0.1524	6.854790	0.00000
92	16.29307	-0.0000157	-0.1585	6.854635	0.00000
93	16.29294	-0.0000219	-0.1554	6.854654	0.00000
94	16.28794	-0.0000157	-0.1525	6.855381	0.00000
95	16.28187	-0.0000126	-0.1464	6.856264	0.00000
96	16.26954	-0.0000065	-0.1464	6.858058	0.00000
97	16.24995	-0.0000157	-0.1434	6.860909	0.00000
98	16.08233	-0.0000034	-0.1555	6.885400	0.00000
99	15.66826	-0.0000065	-0.1555	6.946568	0.00000
100	15.52937	-0.0000065	-0.1615	6.967300	0.00000
101	15.50713	-0.0000034	-0.1585	6.970630	0.00000
102	15.51848	-0.0000157	-0.1584	6.968931	0.00000
103	15.53948	-0.0000126	-0.1524	6.965787	0.00000
104	15.55195	-0.0000157	-0.1494	6.963923	0.00000
105	15.56011	-0.0000065	-0.1524	6.962703	0.00000
106	15.57467	-0.0000034	-0.1493	6.960526	0.00000
107	15.58185	-0.0000065	-0.1494	6.959453	0.00000
108	15.58617	-0.0000126	-0.1462	6.958809	0.00000
109	15.59701	-0.0000065	-0.1554	6.957189	0.00000
110	15.61015	-0.0000065	-0.1584	6.955228	0.00000
111	15.62532	-0.0000126	-0.1583	6.952965	0.00000
112	15.63945	-0.0000065	-0.1584	6.950858	0.00000
113	15.64973	-0.0000126	-0.1584	6.949327	0.00000
114	15.65726	-0.0000065	-0.1614	6.948206	0.00000
115	15.66302	-0.0000157	-0.1553	6.947348	0.00000
116	15.67278	-0.0000126	-0.1553	6.945895	0.00000
117	15.56592	0.0000028	-0.1523	6.961488	0.00816
118	14.85615	-0.0000126	-0.1524	7.069367	0.00000
119	14.43287	0.0000028	-0.1492	7.134568	0.00760
120	14.33432	-0.0000065	-0.1523	7.150314	0.00000
121	14.32474	-0.0000034	-0.1523	7.151816	0.00000
122	14.34681	0.0000028	-0.1523	7.148026	0.00755
123	14.38435	-0.0000034	-0.1644	7.142482	0.00000
124	14.42617	-0.0000157	-0.1584	7.135947	0.00000
125	14.46399	0.0000028	-0.1553	7.129713	0.00761
126	14.49729	-0.0000034	-0.1462	7.124858	0.00000
127	14.52872	0.0000028	-0.1462	7.119633	0.00765
128	14.55999	-0.0000065	-0.1522	7.115108	0.00000
129	14.59224	-0.0000126	-0.1553	7.110102	0.00000
130	14.62248	-0.0000065	-0.1552	7.105413	0.00000
131	14.64785	-0.0000034	-0.1523	7.101484	0.00000
132	14.67585	-0.0000065	-0.1522	7.097152	0.00000
133	14.70266	-0.0000065	-0.1521	7.093008	0.00000
134	14.72790	-0.0000126	-0.1583	7.089111	0.00000
135	14.75519	0.0000028	-0.1583	7.084563	0.00776
136	14.77792	-0.0000034	-0.1431	7.081399	0.00000
137	14.79216	0.4715665	-0.1067	6.941743	3.19728
138	14.29752	1.3716846	-0.0311	6.720942	10.19224
139	13.36835	1.5146400	0.0597	6.796843	11.62481
140	12.72077	2.8529661	0.1446	6.398044	23.61067
141	12.21947	2.8732541	0.2475	6.447189	24.11422
142	11.83790	2.9087331	0.3535	6.477226	24.69294
143	11.58140	2.9267114	0.4626	6.499621	25.03306
144	11.43029	2.9338594	0.5836	6.514155	25.20285
145	11.33932	2.9390679	0.7077	6.522565	25.31426
146	11.28409	2.9098064	0.7865	6.540343	25.07398
147	11.27742	2.9118047	0.8046	6.540332	25.09748
148	11.38179	2.9206548	0.8016	6.524854	25.11064
149	11.49828	2.9282277	0.8016	6.508550	25.10339
150	11.56230	2.9308496	0.8047	6.500216	25.08486
151	11.58631	2.9368256	0.8077	6.495175	25.12500
152	11.55289	2.9453979	0.8107	6.495686	25.22855
153	11.48487	2.9544807	0.8077	6.499937	25.36079
154	11.41034	2.9659908	0.8077	6.503978	25.52102
155	11.34187	2.9735789	0.8047	6.508835	25.64042
156	11.28113	2.9798121	0.8078	6.513334	25.74195
157	11.23316	2.9864196	0.8077	6.516224	25.83844
158	11.19636	2.9920866	0.8138	6.518203	25.91835
159	11.16681	2.9936392	0.8018	6.520965	25.95397
160	11.13943	2.9988440	0.8017	6.522045	26.02307
161	11.11691	3.0040886	0.8048	6.522550	26.08921
162	11.09955	3.0069127	0.8108	6.523419	26.12858
163	11.08570	3.0077208	0.8107	6.524680	26.14615
164	11.07348	3.0089541	0.8078	6.525588	26.16666
165	11.06235	3.0120413	0.8109	6.525638	26.20420
166	11.05475	3.0107590	0.8078	6.527013	26.19730
167	11.04749	3.0091306	0.8018	6.528484	26.18683
168	11.04132	3.0128620	0.8049	6.527713	26.22706
169	11.03925	3.0152330	0.8079	6.527013	26.25131
170	11.03683	3.0141873	0.8140	6.527702	26.24299
171	11.03217	3.0160358	0.8139	6.527504	26.26407
172	11.02768	3.0169298	0.8171	6.527662	26.27587
173	11.02434	3.0177448	0.8201	6.527721	26.28609
174	11.02267	3.0207196	0.8110	6.526735	26.31588
175	11.02434	3.0237807	0.8140	6.525334	26.34412
176	11.02808	3.0258991	0.8109	6.524070	26.36181
177	11.03113	3.0232085	0.8141	6.524786	26.33375
178	11.02894	3.0191438	0.8110	6.526642	26.29625
179	11.02382	3.0207317	0.8110	6.526599	26.31517
180	11.01956	3.0228921	0.8141	6.526230	26.33899
181	11.01783	3.0241155	0.8111	6.525942	26.35199
182	11.01875	3.0258444	0.8141	6.525153	26.36796
183	11.02244	3.0282253	0.8111	6.523792	26.38822
184	11.02716	3.0274762	0.8080	6.523551	26.37763
185	11.02871	3.0248094	0.8081	6.524428	26.35088
186	11.02733	3.0240545	0.8080	6.524884	26.34461
187	11.02549	3.0250955	0.8143	6.524682	26.35593
188	11.02365	3.0255034	0.8082	6.524731	26.36118
189	11.02278	3.0254974	0.8082	6.524832	26.36174
190	11.02365	3.0255034	0.8113	6.524731	26.36118
191	11.02491	3.0258444	0.8233	6.524452	26.36354
192	11.02699	3.0271352	0.8173	6.523705	26.37447
193	11.02992	3.0289378	0.8113	6.522658	26.38970
194	11.03240	3.0298637	0.8173	6.522011	26.39683
195	11.03366	3.0274152	0.8113	6.522834	26.37238
196	11.03217	3.0238719	0.8113	6.524405	26.33939
197	11.02929	3.0236650	0.8113	6.524815	26.33946
198	11.02796	3.0252294	0.8114	6.524347	26.35545
199	11.02877	3.0272448	0.8114	6.523459	26.37425
200	11.03194	3.0297114	0.8114	6.522123	26.39570
201	11.03666	3.0320386	0.8114	6.520666	26.41469
202	11.03965	3.0333791	0.8145	6.519796	26.42543
203	11.04121	3.0332999	0.8144	6.519650	26.42355
204	11.04219	3.0348967	0.8175	6.518908	26.43820
205	11.04547	3.0420496	0.8145	6.515710	26.50462
206	11.05746	3.0442277	0.8085	6.513490	26.51694
207	11.07077	3.0373532	0.8116	6.514692	26.44129
208	11.10555	3.0308315	0.8147	6.513314	26.35374
209	11.20295	3.0238641	0.8177	6.504996	26.21756
210	11.32266	3.0219641	0.8178	6.492179	26.11463
211	11.43134	3.0230828	0.8177	6.479468	26.04870
212	11.54530	3.0254922	0.8148	6.465704	25.99161
213	11.64796	3.0252842	0.8178	6.454257	25.91791
214	11.71817	3.0228000	0.8147	6.447339	25.84561
215	11.76130	3.0212965	0.8209	6.443084	25.80151
216	11.79015	3.0216248	0.8148	6.439732	25.78463
217	11.81607	3.0235903	0.8118	6.436088	25.78520
218	11.84290	3.0252336	0.8148	6.432470	25.78211
219	11.86397	3.0261284	0.8118	6.429780	25.77595
220	11.87581	3.0260369	0.8119	6.428494	25.76692
221	11.88765	3.0248922	0.8119	6.427607	25.74799
222	11.89814	3.0239973	0.8150	6.426776	25.73235
223	11.90192	3.0228956	0.8150	6.426772	25.71941
224	11.90121	3.0221105	0.8211	6.427148	25.71252
225	11.89797	3.0209361	0.8211	6.427953	25.70373
226	11.89414	3.0202121	0.8151	6.428654	25.69957
227	11.89302	3.0201695	0.8181	6.428795	25.69994
228	11.89720	3.0203277	0.8151	6.428268	25.69855
229	11.88636	3.0199932	0.8151	6.429605	25.70287
230	11.86221	3.0192755	0.8183	6.432572	25.71277
231	11.84555	3.0181382	0.8213	6.434863	25.71356
232	11.83878	3.0158698	0.8213	6.436480	25.69691
233	11.83407	3.0145382	0.8213	6.437511	25.68763
234	11.83095	3.0143923	0.8244	6.437915	25.68841
235	11.84449	3.0149698	0.8184	6.436183	25.68451
236	11.86486	3.0147507	0.8214	6.433989	25.66843
237	11.85991	3.0134254	0.8275	6.435044	25.65938
238	11.84743	3.0115777	0.8155	6.437139	25.65061
239	11.84378	3.0097608	0.8185	6.438236	25.63605
240	11.84360	3.0085821	0.8185	6.438703	25.62509
241	11.84643	3.0080778	0.8186	6.438578	25.61841
242	11.85002	3.0078469	0.8186	6.438264	25.61378
243	11.85491	3.0067839	0.8186	6.438120	25.60044
244	11.86209	3.0054659	0.8157	6.437815	25.58313
245	11.87110	3.0050285	0.8248	6.436972	25.57285
246	11.88329	3.0048037	0.8188	6.435693	25.56238
247	11.90015	3.0047429	0.8278	6.433831	25.55027
248	11.91270	3.0036923	0.8218	6.432824	25.53183
249	11.91730	3.0028423	0.8219	6.432630	25.52071
250	11.92043	3.0015007	0.8160	6.432787	25.50600
251	11.92792	2.9975500	0.8189	6.433441	25.46387
252	11.94320	2.9924371	0.8219	6.433660	25.40556
253	11.96599	2.9892423	0.8191	6.432314	25.36018
254	11.99345	2.9889451	0.8190	6.429352	25.33877
255	12.01941	2.9852004	0.8130	6.427857	25.28621
256	12.04165	2.9798350	0.8221	6.427383	25.22109
257	12.06236	2.9729490	0.8222	6.427648	25.14291
258	12.07604	2.9722049	0.8131	6.426395	25.12679
259	12.08978	2.9771896	0.8192	6.422990	25.16403
260	12.10478	2.9724163	0.8101	6.423099	25.10949
261	12.10181	2.9661896	0.8133	6.425762	25.05348
262	12.08984	2.9614050	0.8163	6.428895	25.01691
263	12.08374	2.9562733	0.8224	6.431502	24.97319
264	12.07527	2.9538052	0.8164	6.433378	24.95585
265	12.06171	2.9548312	0.8225	6.434516	24.97445
266	12.04443	2.9566539	0.8196	6.435774	25.00298
267	12.02573	2.9576561	0.8166	6.437498	25.02482
268	12.01201	2.9552420	0.8135	6.439948	25.01148
269	12.00202	2.9560387	0.8105	6.440772	25.02559
270	11.99251	2.9590812	0.8136	6.440698	25.06037
271	11.98394	2.9582481	0.8077	6.441975	25.05833
272	11.97408	2.9551820	0.8137	6.444240	25.03630
273	11.96221	2.9523584	0.8198	6.446642	25.01787
274	11.95052	2.9521052	0.8168	6.448054	25.02333
275	11.93594	2.9527387	0.8199	6.449459	25.03902
276	11.91954	2.9537102	0.8139	6.450941	25.05910
277	11.90133	2.9547301	0.8169	6.452610	25.08088
278	11.88488	2.9554786	0.8230	6.454182	25.09893
279	11.86715	2.9543322	0.8231	6.456618	25.10012
280	11.85620	2.9518889	0.8171	6.458781	25.08460
281	11.84843	2.9544229	0.8141	6.458698	25.11357
282	11.84001	2.9561247	0.8141	6.459003	25.13519
283	11.83160	2.9524743	0.8203	6.461339	25.10663
284	11.81731	2.9516601	0.8202	6.463265	25.10862
285	11.80090	2.9543871	0.8203	6.464084	25.14526
286	11.78691	2.9556545	0.8205	6.465184	25.16660
287	11.77816	2.9550390	0.8174	6.466409	25.16673
288	11.76894	2.9552443	0.8174	6.467374	25.17489
289	11.75713	2.9565722	0.8144	6.468204	25.19534
290	11.74592	2.9597537	0.8145	6.468261	25.23284
291	11.73395	2.9612937	0.8085	6.469028	25.25543
292	11.72127	2.9611731	0.8145	6.470509	25.26289
293	11.70866	2.9574841	0.8176	6.473346	25.23674
294	11.69688	2.9569047	0.8176	6.474903	25.23928
295	11.68821	2.9590479	0.8146	6.475066	25.26534
296	11.67678	2.9583959	0.8147	6.476611	25.26696
297	11.66366	2.9555410	0.8178	6.479192	25.24898
298	11.64984	2.9543041	0.8178	6.481235	25.24671
299	11.63632	2.9530674	0.8119	6.483245	25.24424
300	11.62865	2.9528925	0.8120	6.484183	25.24780
301	11.62251	2.9540027	0.8149	6.484455	25.26244
302	11.61572	2.9535381	0.8120	6.485404	25.26267
303	11.60935	2.9552458	0.8151	6.485473	25.28311
304	11.60011	2.9563504	0.8181	6.486099	25.29982
305	11.58736	2.9557168	0.8182	6.487791	25.30252
306	11.57562	2.9541540	0.8243	6.489728	25.29576
307	11.56750	2.9524768	0.8244	6.491298	25.28546
308	11.56422	2.9540877	0.8245	6.491050	25.30290
309	11.56189	2.9567793	0.8214	6.490280	25.32991
310	11.55733	2.9570147	0.8215	6.490707	25.33525
311	11.55581	2.9583307	0.8154	6.490373	25.34872
312	11.55395	2.9598763	0.8125	6.489990	25.36460
313	11.54490	2.9594900	0.8186	6.491168	25.36713
314	11.53229	2.9589467	0.8186	6.492812	25.37061
315	11.52668	2.9590796	0.8127	6.493399	25.37570
316	11.52132	2.9575764	0.8188	6.494589	25.36515
317	11.51274	2.9562486	0.8158	6.496078	25.35846
318	11.50463	2.9548727	0.8248	6.497533	25.35098
319	11.49921	2.9551021	0.8189	6.498063	25.35686
320	11.49904	2.9546857	0.8220	6.498243	25.35304
321	11.49705	2.9536177	0.8221	6.498882	25.34429
322	11.49116	2.9528335	0.8130	6.499856	25.34089
323	11.48481	2.9519226	0.8282	6.500933	25.33661
324	11.48318	2.9509214	0.8222	6.501506	25.32825
325	11.48592	2.9503303	0.8222	6.501422	25.32079
326	11.48872	2.9493051	0.8193	6.501499	25.30918
327	11.48452	2.9480087	0.8193	6.502479	25.29977
328	11.47654	2.9472070	0.8254	6.503701	25.29763
329	11.46960	2.9461883	0.8285	6.504887	25.29272
330	11.46779	2.9451938	0.8194	6.505478	25.28454
331	11.46756	2.9446935	0.8256	6.505698	25.27996
332	11.46471	2.9443440	0.8166	6.506159	25.27861
333	11.45789	2.9438439	0.8167	6.507132	25.27852
334	11.45009	2.9441333	0.8227	6.507912	25.28658
335	11.44432	2.9441092	0.8168	6.508580	25.29029
336	11.44223	2.9445431	0.8288	6.508652	25.29582
337	11.43903	2.9445492	0.8258	6.509016	25.29807
338	11.43670	2.9436393	0.8259	6.509635	25.29104
339	11.44048	2.9411509	0.8199	6.510166	25.26489
340	11.44298	2.9406208	0.8109	6.510085	25.25817
341	11.44357	2.9418196	0.8200	6.509554	25.26912
342	11.44298	2.9418798	0.8201	6.509597	25.27009
343	11.44386	2.9410967	0.8232	6.509801	25.26207
344	11.44461	2.9399763	0.8231	6.510148	25.25095
345	11.44432	2.9393319	0.8232	6.510431	25.24504
346	11.44217	2.9390669	0.8204	6.510780	25.24400
347	11.43972	2.9389345	0.8264	6.511111	25.24441
348	11.43478	2.9391272	0.8265	6.511603	25.24961
349	11.42884	2.9383324	0.8326	6.512591	25.24612
350	11.42610	2.9374292	0.8235	6.513254	25.23943
351	11.42616	2.9371582	0.8297	6.513353	25.23683
352	11.42616	2.9380735	0.8236	6.512998	25.24550
353	11.42331	2.9389768	0.8237	6.512974	25.25600
354	11.42040	2.9397718	0.8208	6.512999	25.26552
355	11.41854	2.9403500	0.8208	6.512988	25.27226
356	11.41359	2.9406211	0.8239	6.513449	25.27821
357	11.40917	2.9403862	0.8239	6.514046	25.27900
358	11.40679	2.9405308	0.8210	6.514263	25.28200
359	11.40475	2.9404285	0.8240	6.514536	25.28241
360	11.40120	2.9398262	0.8272	6.515177	25.27912
361	11.39597	2.9393866	0.8241	6.515947	25.27853
362	11.38894	2.9393565	0.8273	6.516765	25.28305
363	11.38248	2.9393204	0.8274	6.517518	25.28711
364	11.37859	2.9386881	0.8243	6.518211	25.28377
365	11.37615	2.9380739	0.8305	6.518729	25.27961
366	11.37650	2.9379234	0.8275	6.518748	25.27795
367	11.37714	2.9383810	0.8185	6.518496	25.28186
368	11.37748	2.9391519	0.8275	6.518157	25.28893
369	11.37551	2.9396819	0.8277	6.518177	25.29530
370	11.37347	2.9402661	0.8307	6.518183	25.30224
371	11.37394	2.9406817	0.8247	6.517968	25.30586
372	11.37469	2.9407962	0.8248	6.517837	25.30643
373	11.37289	2.9404167	0.8278	6.518191	25.30406
374	11.36679	2.9402060	0.8249	6.518973	25.30623
375	11.35976	2.9405433	0.8280	6.519648	25.31424
376	11.35389	2.9407060	0.8311	6.520257	25.31980
377	11.35349	2.9413807	0.8280	6.520041	25.32648
378	11.35477	2.9420253	0.8281	6.519644	25.33173
379	11.35471	2.9429290	0.8252	6.519299	25.34035
380	11.35424	2.9437244	0.8223	6.519042	25.34822
381	11.35256	2.9440498	0.8283	6.519109	25.35246
382	11.35099	2.9437606	0.8315	6.519401	25.35078
383	11.35018	2.9434593	0.8285	6.519612	25.34848
384	11.34815	2.9436702	0.8255	6.519762	25.35188
385	11.34518	2.9441945	0.8287	6.519898	25.35888
386	11.34158	2.9447610	0.8286	6.520090	25.36673
387	11.33758	2.9454301	0.8287	6.520289	25.37583
388	11.33409	2.9460148	0.8348	6.520460	25.38377
389	11.33055	2.9468346	0.8319	6.520547	25.39399
390	11.32777	2.9474315	0.8319	6.520633	25.40158
391	11.32492	2.9476304	0.8320	6.520882	25.40542
392	11.32191	2.9475400	0.8321	6.521263	25.40664
393	11.31889	2.9472386	0.8290	6.521726	25.40584
394	11.31599	2.9473652	0.8261	6.522010	25.40904
395	11.31483	2.9477451	0.8261	6.521995	25.41345
396	11.31390	2.9482154	0.8322	6.521918	25.41856
397	11.31175	2.9484927	0.8324	6.522056	25.42267
398	11.30966	2.9487159	0.8384	6.522208	25.42622
399	11.30740	2.9492767	0.8295	6.522249	25.43311
400	11.30520	2.9503019	0.8324	6.522101	25.44438
401	11.30288	2.9514177	0.8295	6.521932	25.45659
402	11.30003	2.9519787	0.8326	6.522039	25.46388
403	11.29783	2.9524794	0.8297	6.522096	25.47016
404	11.29673	2.9525277	0.8267	6.522203	25.47138
405	11.29510	2.9524794	0.8298	6.522408	25.47204
406	11.29255	2.9524794	0.8268	6.522701	25.47380
407	11.28919	2.9522140	0.8299	6.523190	25.47359
408	11.28554	2.9521115	0.8330	6.523649	25.47513
409	11.28310	2.9523951	0.8361	6.523817	25.47950
410	11.28258	2.9530406	0.8392	6.523625	25.48601
411	11.28275	2.9534207	0.8332	6.523456	25.48950
412	11.28194	2.9536319	0.8242	6.523467	25.49208
413	11.28003	2.9535414	0.8303	6.523721	25.49253
414	11.27881	2.9536560	0.8274	6.523816	25.49446
415	11.27864	2.9539517	0.8334	6.523721	25.49740
416	11.27696	2.9540724	0.8275	6.523866	25.49971
417	11.27354	2.9539819	0.8336	6.524294	25.50120
418	11.26994	2.9534208	0.8276	6.524925	25.49834
419	11.26513	2.9530709	0.8276	6.525613	25.49833
420	11.26276	2.9532761	0.8307	6.525805	25.50192
421	11.26241	2.9531976	0.8339	6.525876	25.50141
422	11.26166	2.9528658	0.8339	6.526092	25.49877
423	11.26079	2.9525401	0.8309	6.526319	25.49627
424	11.26056	2.9522746	0.8280	6.526450	25.49391
425	11.25998	2.9521118	0.8310	6.526580	25.49275
426	11.25778	2.9529805	0.8311	6.526493	25.50255
427	11.25505	2.9526306	0.8312	6.526942	25.50109
428	11.25459	2.9553760	0.8342	6.525921	25.52756
429	11.26960	2.9551043	0.8283	6.524307	25.51461
430	11.27649	2.9554542	0.8254	6.523379	25.51318
431	11.26641	2.9558104	0.8284	6.524396	25.52353
432	11.25801	2.9561847	0.8254	6.525213	25.53290
433	11.25146	2.9565167	0.8255	6.525833	25.54059
434	11.24550	2.9567521	0.8285	6.526425	25.54696
435	11.24150	2.9567703	0.8287	6.526877	25.54989
436	11.23768	2.9563659	0.8287	6.527473	25.54868
437	11.23548	2.9565168	0.8288	6.527666	25.55164
438	11.23484	2.9572230	0.8289	6.527463	25.55881
439	11.23386	2.9578629	0.8290	6.527325	25.56559
440	11.23305	2.9583761	0.8261	6.527217	25.57105
441	11.23183	2.9586960	0.8320	6.527231	25.57494
442	11.23079	2.9587021	0.8322	6.527349	25.57571
443	11.23056	2.9588168	0.8353	6.527330	25.57697
444	11.22975	2.9592274	0.8292	6.527262	25.58144
445	11.22784	2.9598191	0.8323	6.527250	25.58841
446	11.22483	2.9600244	0.8324	6.527514	25.59245
447	11.22228	2.9601150	0.8385	6.527771	25.59508
448	11.22118	2.9598433	0.8356	6.528003	25.59325
449	11.22112	2.9595837	0.8326	6.528112	25.59082
450	11.22095	2.9596139	0.8356	6.528120	25.59122
451	11.22014	2.9594931	0.8297	6.528260	25.59063
452	11.21823	2.9590886	0.8327	6.528638	25.58810
453	11.21580	2.9589920	0.8298	6.528954	25.58886
454	11.21371	2.9591430	0.8329	6.529134	25.59175
455	11.21157	2.9595113	0.8299	6.529235	25.59674
456	11.20943	2.9600548	0.8391	6.529268	25.60341
457	11.20741	2.9603809	0.8330	6.529372	25.60793
458	11.20509	2.9602662	0.8362	6.529683	25.60844
459	11.20289	2.9598193	0.8302	6.530110	25.60570
460	11.20220	2.9597288	0.8363	6.530225	25.60532
461	11.20261	2.9599582	0.8365	6.530089	25.60722
462	11.20232	2.9601152	0.8364	6.530061	25.60892
463	11.20075	2.9598797	0.8365	6.530332	25.60776
464	11.19960	2.9597288	0.8306	6.530524	25.60712
465	11.19856	2.9595356	0.8305	6.530719	25.60600
466	11.19723	2.9593182	0.8337	6.530957	25.60485
467	11.19520	2.9596141	0.8338	6.531073	25.60908
468	11.19381	2.9602059	0.8308	6.531000	25.61569
469	11.19416	2.9607312	0.8340	6.530755	25.62046
470	11.19538	2.9610271	0.8370	6.530499	25.62244
471	11.19584	2.9611056	0.8311	6.530415	25.62287
472	11.19497	2.9610271	0.8341	6.530546	25.62272
473	11.19341	2.9610272	0.8311	6.530725	25.62381
474	11.19185	2.9610272	0.8313	6.530904	25.62489
475	11.19104	2.9609366	0.8374	6.531032	25.62459
476	11.19092	2.9611480	0.8343	6.530963	25.62668
477	11.19133	2.9614439	0.8375	6.530800	25.62923
478	11.19179	2.9617217	0.8285	6.530638	25.63156
479	11.19214	2.9617942	0.8316	6.530570	25.63201
480	11.19190	2.9615043	0.8347	6.530710	25.62940
481	11.19156	2.9611298	0.8317	6.530897	25.62607
482	11.19185	2.9610272	0.8317	6.530904	25.62489
483	11.19231	2.9613835	0.8257	6.530711	25.62797
484	11.19115	2.9618606	0.8318	6.530656	25.63333
485	11.18890	2.9623016	0.8289	6.530742	25.63910
486	11.18647	2.9625915	0.8350	6.530907	25.64356
487	11.18473	2.9624768	0.8321	6.531151	25.64367
488	11.18335	2.9622110	0.8322	6.531414	25.64209
489	11.18260	2.9619151	0.8353	6.531617	25.63979
490	11.18236	2.9618547	0.8384	6.531667	25.63937
491	11.18288	2.9619453	0.8385	6.531572	25.63988
492	11.18231	2.9622412	0.8325	6.531522	25.64310
493	11.18086	2.9623560	0.8355	6.531643	25.64520
494	11.17866	2.9624768	0.8296	6.531847	25.64789
495	11.17629	2.9626822	0.8356	6.532039	25.65149
496	11.17537	2.9629782	0.8358	6.532029	25.65496
497	11.17473	2.9627547	0.8297	6.532189	25.65327
498	11.17433	2.9572840	0.8843	6.534385	25.60130
499	11.17710	2.9632440	0.9993	6.531728	25.65624
500	11.16751	2.9683322	1.1267	6.530831	25.71147
501	11.13776	2.9725407	1.2841	6.532590	25.77240
502	11.09666	2.9810309	1.4811	6.533960	25.88237
503	11.05579	2.9845315	1.6508	6.537266	25.94461
504	11.02134	2.9872823	1.8264	6.540131	25.99524
505	10.99470	2.9895248	2.0203	6.542302	26.03554
506	10.97474	2.9896705	2.1989	6.544537	26.05101
507	10.95784	2.9923865	2.3716	6.545401	26.08905
508	10.94342	2.9971718	2.5655	6.545158	26.14527
509	10.92963	3.0001331	2.7504	6.545565	26.18352
510	10.91597	3.0025916	2.9411	6.546158	26.21688
511	10.90190	3.0055488	3.1410	6.546596	26.25534
512	10.89003	3.0062231	3.3318	6.547692	26.27027
513	10.88142	3.0079665	3.5286	6.547987	26.29317
514	10.87517	3.0080274	3.7135	6.548683	26.29817
515	10.87070	3.0101358	3.9013	6.548358	26.32165
516	10.86646	3.0098563	4.0618	6.548958	26.32194
517	10.86284	3.0125365	4.2284	6.548305	26.35034
518	10.85849	3.0134971	4.4042	6.548424	26.36267
519	10.85625	3.0143118	4.5616	6.548358	26.37209
520	10.85585	3.0139531	4.7283	6.548549	26.36885
521	10.85442	3.0149442	4.8889	6.548320	26.37940
522	10.85298	3.0158077	5.0462	6.548142	26.38871
523	10.85155	3.0158807	5.2129	6.548280	26.39038
524	10.85012	3.0163186	5.3857	6.548272	26.39558
525	10.84851	3.0163308	5.5462	6.548453	26.39680
526	10.84359	3.0178392	5.7066	6.548418	26.41485
527	10.83322	3.0218669	5.8794	6.548000	26.46118
528	10.81867	3.0252026	6.0429	6.548335	26.50386
529	10.80184	3.0302025	6.2004	6.548264	26.56435
530	10.78639	3.0330785	6.3639	6.548883	26.60333
531	10.77255	3.0360653	6.5337	6.549273	26.64224
532	10.76008	3.0381140	6.7003	6.549881	26.67110
533	10.74785	3.0392607	6.8608	6.550823	26.69106
534	10.73396	3.0451725	7.0213	6.550041	26.75846
535	10.71808	3.0505086	7.2001	6.549715	26.82179
536	10.70318	3.0523717	7.3547	6.550672	26.85075
537	10.69148	3.0568812	7.5273	6.550197	26.90309
538	10.68127	3.0578959	7.6909	6.550958	26.92040
539	10.67311	3.0604760	7.8605	6.550854	26.95142
540	10.66683	3.0606474	8.0242	6.551503	26.95765
541	10.66159	3.0623170	8.1785	6.551432	26.97770
542	10.65560	3.0628247	8.3542	6.551914	26.98699
543	10.64523	3.0650454	8.5178	6.552206	27.01620
544	10.63360	3.0675360	8.6844	6.552531	27.04898
545	10.62198	3.0694642	8.8419	6.553082	27.07630
546	10.60996	3.0720174	8.9964	6.553425	27.11003
547	10.59009	3.0742958	9.1600	6.554774	27.14693
548	10.56551	3.0777453	9.3235	6.556185	27.19880
549	10.53492	3.0809204	9.4932	6.558392	27.25255
550	10.49721	3.0851516	9.6537	6.560983	27.32205
551	10.46270	3.0918215	9.8202	6.562212	27.41317
552	10.42404	3.0991666	9.9779	6.563634	27.51423
553	10.37981	3.1096797	10.1445	6.564388	27.65086
554	10.33512	3.1192208	10.3111	6.565579	27.77864
555	10.29071	3.1285758	10.4686	6.566803	27.90471
556	10.24883	3.1381388	10.6443	6.567641	28.03121
557	10.21252	3.1410102	10.8018	6.570591	28.08757
558	10.18160	3.1495676	10.9744	6.570582	28.19611
559	10.15070	3.1556899	11.1501	6.571568	28.28072
560	10.12044	3.1618849	11.3228	6.572445	28.36570
561	10.09256	3.1648326	11.4894	6.574392	28.41672
562	10.07027	3.1677255	11.6591	6.575727	28.46289
563	10.05040	3.1693862	11.8287	6.577296	28.49495
564	10.02981	3.1727393	11.9923	6.578244	28.54446
565	10.01047	3.1735889	12.1407	6.580089	28.56811
566	9.99259	3.1790650	12.3071	6.579843	28.63672
567	9.97601	3.1827634	12.4769	6.580187	28.68665
568	9.95703	3.1863703	12.6496	6.580839	28.73762
569	9.93733	3.1892023	12.8192	6.581894	28.78148
570	9.91753	3.1925448	12.9827	6.582747	28.83058
571	9.89880	3.1950433	13.1403	6.583828	28.87044
572	9.88449	3.1975114	13.3009	6.584420	28.90650
573	9.86879	3.2008634	13.4676	6.584799	28.95254
574	9.85126	3.2043785	13.6158	6.585315	29.00174
575	9.83273	3.2071918	13.7885	6.586238	29.04475
576	9.81226	3.2113822	13.9461	6.586800	29.10319
577	9.78929	3.2138365	14.1006	6.588373	29.14630
578	9.76639	3.2186223	14.2611	6.588955	29.21282
579	9.73905	3.2210227	14.4187	6.591042	29.25906
580	9.71279	3.2246212	14.5851	6.592501	29.31654
581	9.69093	3.2278843	14.7427	6.593599	29.36713
582	9.67176	3.2308989	14.8972	6.594498	29.41309
583	9.65181	3.2345204	15.0608	6.595225	29.46585
584	9.63122	3.2374562	15.2122	6.596315	29.51229
585	9.61462	3.2407617	15.3758	6.596794	29.55922
586	9.59981	3.2421244	15.5334	6.597894	29.58510
587	9.58473	3.2446063	15.6818	6.598548	29.62254
588	9.57248	3.2450692	15.8454	6.599740	29.63726
589	9.56151	3.2469954	15.9968	6.600165	29.66573
590	9.55281	3.2477085	16.1603	6.600848	29.68006
591	9.54528	3.2494163	16.3119	6.600976	29.70351
592	9.53863	3.2499732	16.4602	6.601494	29.71458
593	9.53226	3.2512747	16.6207	6.601662	29.73297
594	9.52584	3.2524262	16.7723	6.601901	29.74988
595	9.51837	3.2529895	16.9359	6.602508	29.76172
596	9.51101	3.2546358	17.0933	6.602642	29.78444
597	9.50221	3.2553809	17.2539	6.603322	29.79922
598	9.49270	3.2568773	17.4055	6.603762	29.82224
599	9.48385	3.2579670	17.5720	6.604300	29.84057
600	9.47517	3.2592447	17.7628	6.604739	29.86068
601	9.46787	3.2607418	17.9295	6.604927	29.88188
602	9.46301	3.2616440	18.0869	6.605094	29.89502
603	9.45693	3.2629223	18.2384	6.605238	29.91300
604	9.45008	3.2633297	18.3989	6.605841	29.92279
605	9.44350	3.2645768	18.5504	6.606053	29.94088
606	9.43610	3.2648903	18.7110	6.606759	29.95018
607	9.42671	3.2662317	18.8654	6.607248	29.97159
608	9.41882	3.2662632	19.0200	6.608130	29.97845
609	9.41043	3.2674168	19.1744	6.608587	29.99714
610	9.40105	3.2683197	19.3320	6.609263	30.01411
611	9.38803	3.2700756	19.4895	6.609985	30.04282
612	9.37088	3.2712674	19.6500	6.611415	30.06928
613	9.34933	3.2727668	19.8075	6.613211	30.10260
614	9.31986	3.2742101	19.9589	6.615926	30.14205
615	9.28870	3.2750826	20.1226	6.619079	30.17716
616	9.25961	3.2758360	20.2800	6.622050	30.20936
617	9.23537	3.2761187	20.4377	6.624677	30.23268
618	9.21274	3.2766524	20.5921	6.627013	30.25724
619	9.19023	3.2770920	20.7495	6.629377	30.28075
620	9.16467	3.2775944	20.9101	6.632062	30.30753
621	9.13846	3.2781283	21.0676	6.634807	30.33520
622	9.11446	3.2785806	21.2162	6.637337	30.36020
623	9.09404	3.2793844	21.3767	6.639310	30.38579
624	9.07597	3.2793846	21.5371	6.641365	30.40113
625	9.05901	3.2798557	21.6886	6.643089	30.42038
626	9.04310	3.2799815	21.8491	6.644847	30.43520
627	9.02845	3.2810177	22.0066	6.646063	30.45831
628	9.01419	3.2808609	22.1672	6.647756	30.46884
629	9.00004	3.2818030	22.3126	6.648956	30.49058
630	8.98765	3.2815834	22.4792	6.650466	30.49888
631	8.97711	3.2818975	22.6429	6.651530	30.51108
632	8.96789	3.2814456	22.8003	6.652781	30.51427
633	8.95807	3.2818350	22.9638	6.653732	30.52664
634	8.94699	3.2815212	23.1305	6.655134	30.53284
635	8.93450	3.2818982	23.2880	6.656394	30.54739
636	8.92158	3.2817414	23.4605	6.657938	30.55680
637	8.91069	3.2825580	23.6213	6.658824	30.57453
638	8.90180	3.2827151	23.7787	6.659770	30.58373
639	8.89254	3.2824326	23.9393	6.660953	30.58872
640	8.88514	3.2828724	24.0967	6.661607	30.59957
641	8.87920	3.2832054	24.2514	6.662140	30.60806
642	8.87289	3.2832181	24.4117	6.662858	30.61356
643	8.86619	3.2830298	24.5814	6.663708	30.61732
644	8.85966	3.2834381	24.7359	6.664276	30.62710
645	8.85427	3.2831870	24.8903	6.665004	30.62909
646	8.84883	3.2832813	25.0570	6.665586	30.63469
647	8.84443	3.2841294	25.2114	6.665718	30.64719
648	8.84095	3.2832815	25.3721	6.666492	30.64136
649	8.83736	3.2840039	25.5295	6.666586	30.65186
650	8.83382	3.2834073	25.6900	6.667256	30.64868
651	8.83116	3.2839538	25.8657	6.667322	30.65656
652	8.82904	3.2838785	26.0203	6.667600	30.65754
653	8.82594	3.2840671	26.1838	6.667874	30.66210
654	8.82164	3.2837845	26.3473	6.668492	30.66282
655	8.81735	3.2846954	26.5079	6.668583	30.67589
656	8.81419	3.2840987	26.6716	6.669210	30.67237
657	8.81088	3.2845385	26.8260	6.669397	30.67972
658	8.80849	3.2845700	26.9866	6.669659	30.68204
659	8.80675	3.2850412	27.1531	6.669652	30.68835
660	8.80555	3.2858643	27.3076	6.669427	30.69784
661	8.80550	3.2858266	27.4771	6.669453	30.69742
662	8.80544	3.2865806	27.6348	6.669129	30.70521
663	8.80523	3.2868320	27.8105	6.669046	30.70792
664	8.80484	3.2871463	27.9619	6.668953	30.71144
665	8.80479	3.2866751	28.1496	6.669171	30.70653
666	8.80457	3.2864238	28.3436	6.669311	30.70403
667	8.80664	3.2896037	28.4981	6.667672	30.73509
668	8.80778	3.2886169	28.6676	6.667981	30.72381
669	8.80637	3.2887239	28.8282	6.668098	30.72608
670	8.80593	3.2882463	28.9857	6.668362	30.72144
671	8.80571	3.2880892	29.1551	6.668459	30.71993
672	8.80680	3.2887240	29.3098	6.668057	30.72549
673	8.80865	3.2885669	29.4795	6.667919	30.72219
674	8.80968	3.2888498	29.6370	6.667679	30.72416
675	8.81001	3.2884979	29.8035	6.667800	30.72016
676	8.81033	3.2884351	29.9611	6.667794	30.71916
677	8.81153	3.2885294	30.1245	6.667619	30.71903
678	8.81300	3.2885986	30.2882	6.667424	30.71841
679	8.81381	3.2888500	30.4638	6.667223	30.72023
680	8.81419	3.2891957	30.6305	6.667029	30.72340
681	8.81485	3.2891329	30.7910	6.666986	30.72212
682	8.81572	3.2896358	30.9515	6.666667	30.72650
683	8.81658	3.2890701	31.1121	6.666821	30.71982
684	8.81702	3.2892273	31.2786	6.666705	30.72100
685	8.81773	3.2894850	31.4301	6.666513	30.72299
686	8.81784	3.2893217	31.5937	6.666576	30.72114
687	8.81784	3.2895731	31.7513	6.666468	30.72367
688	8.81756	3.2893846	31.9209	6.666585	30.72188
689	8.81751	3.2893847	32.0814	6.666594	30.72186
690	8.81816	3.2892276	32.2450	6.666592	30.71960
691	8.81870	3.2895733	32.4086	6.666381	30.72264
692	8.81909	3.2893220	32.5782	6.666451	30.71963
693	8.81914	3.2893346	32.7296	6.666442	30.71965
694	8.81914	3.2892907	32.8872	6.666465	30.71913
695	8.81892	3.2891021	33.0416	6.666576	30.71730
696	8.81881	3.2891336	33.2083	6.666577	30.71765
697	8.81909	3.2895108	33.3717	6.666383	30.72124
698	8.81936	3.2897937	33.5293	6.666230	30.72387
699	8.81914	3.2896680	33.6808	6.666313	30.72269
700	8.81914	3.2899195	33.8353	6.666204	30.72523
701	8.81968	3.2900830	34.0019	6.666073	30.72638
702	8.81985	3.2899824	34.1595	6.666102	30.72513
703	8.82039	3.2899511	34.3169	6.666057	30.72426
704	8.82050	3.2899197	34.4805	6.666061	30.72377
705	8.82012	3.2896369	34.6410	6.666232	30.72111
706	8.82023	3.2896998	34.8046	6.666195	30.72159
707	8.82023	3.2899827	34.9591	6.666073	30.72445
708	8.82034	3.2898256	35.1256	6.666133	30.72266
709	8.82050	3.2899639	35.2864	6.666056	30.72388
710	8.82110	3.2902028	35.4498	6.665886	30.72577
711	8.82137	3.2900457	35.6104	6.665927	30.72384
712	8.82137	3.2902344	35.7710	6.665847	30.72572
713	8.82186	3.2905173	35.9346	6.665669	30.72815
714	8.82267	3.2906116	36.0950	6.665537	30.72835
715	8.82327	3.2911774	36.2495	6.665222	30.73362
716	8.82392	3.2914290	36.4101	6.665039	30.73559
717	8.82376	3.2913096	36.5676	6.665114	30.73443
718	8.82392	3.2917497	36.7280	6.664904	30.73877
719	8.82349	3.2920641	36.8917	6.664817	30.74233
720	8.82006	3.2926929	37.0582	6.664933	30.75173
721	8.81196	3.2932590	37.2249	6.665609	30.76454
722	8.79555	3.2936680	37.3915	6.667303	30.78294
723	8.77616	3.2937625	37.5520	6.669475	30.80069
724	8.75673	3.2936370	37.7125	6.671752	30.81621
725	8.73996	3.2934360	37.8822	6.673758	30.82863
726	8.72493	3.2933859	38.0397	6.675499	30.84112
727	8.71262	3.2931975	38.2032	6.676992	30.84981
728	8.70265	3.2929461	38.3637	6.678247	30.85582
729	8.69457	3.2926633	38.5454	6.679299	30.85984
730	8.68872	3.2922862	38.7211	6.680139	30.86095
731	8.68401	3.2917833	38.9031	6.680905	30.85976
732	8.68119	3.2929151	39.0635	6.680726	30.87390
733	8.67946	3.2925442	39.2300	6.681093	30.87149
734	8.67545	3.2924437	39.3967	6.681599	30.87386
735	8.67198	3.2923181	39.5634	6.682055	30.87551
736	8.66965	3.2919723	39.7298	6.682478	30.87388
737	8.66770	3.2923182	39.8843	6.682550	30.87910
738	8.66597	3.2919096	40.0419	6.682933	30.87630
739	8.66440	3.2920668	40.2054	6.683046	30.87923
740	8.66424	3.2922870	40.3751	6.682969	30.88159
741	8.66505	3.2923625	40.5478	6.682846	30.88159
742	8.66765	3.2930101	40.6931	6.682263	30.88599
743	8.67036	3.2933245	40.8565	6.681816	30.88682
744	8.67312	3.2936390	41.0264	6.681364	30.88761
745	8.67610	3.2939534	41.1870	6.680886	30.88821
746	8.67816	3.2940478	41.3475	6.680612	30.88732
747	8.67751	3.2937334	41.5050	6.680829	30.88455
748	8.67523	3.2933813	41.6713	6.681249	30.88281
749	8.67220	3.2927903	41.8382	6.681862	30.87924
750	8.66754	3.2923189	42.0018	6.682608	30.87833
751	8.66321	3.2921618	42.1561	6.683176	30.88041
752	8.65866	3.2921305	42.3318	6.683714	30.88398
753	8.65465	3.2921306	42.4924	6.684175	30.88741
754	8.65168	3.2918791	42.6499	6.684631	30.88732
755	8.64865	3.2917849	42.8014	6.685023	30.88892
756	8.64426	3.2911941	42.9769	6.685791	30.88653
757	8.63950	3.2908358	43.1407	6.686499	30.88689
758	8.63533	3.2908359	43.2951	6.686979	30.89046
759	8.63165	3.2908360	43.4616	6.687404	30.89360
760	8.62835	3.2906475	43.6313	6.687869	30.89445
761	8.62538	3.2906162	43.7979	6.688227	30.89665
762	8.62256	3.2906791	43.9524	6.688524	30.89970
763	8.61986	3.2908364	44.1192	6.688767	30.90362
764	8.61396	3.2907170	44.2734	6.689498	30.90746
765	8.60488	3.2902394	44.4370	6.690755	30.91036
766	8.59769	3.2907739	44.6067	6.691344	30.92214
767	8.59315	3.2911197	44.7704	6.691713	30.92964
768	8.59007	3.2914656	44.9278	6.691914	30.93587
769	8.58812	3.2918492	45.1004	6.691969	30.94149
770	8.58520	3.2917864	45.2641	6.692334	30.94332
771	8.58018	3.2917550	45.4276	6.692928	30.94732
772	8.57499	3.2918243	45.5819	6.693494	30.95252
773	8.57029	3.2918181	45.7335	6.694039	30.95650
774	8.56602	3.2919125	45.9002	6.694489	30.96115
775	8.56289	3.2920384	46.0698	6.694795	30.96514
776	8.56014	3.2922271	46.2274	6.695029	30.96945
777	8.55825	3.2924158	46.3877	6.695164	30.97300
778	8.55765	3.2926987	46.5483	6.695109	30.97640
779	8.55792	3.2930132	46.6968	6.694940	30.97938
780	8.55803	3.2932962	46.8695	6.694804	30.98216
781	8.55792	3.2936107	47.0268	6.694678	30.98546
782	8.55700	3.2933592	47.1844	6.694899	30.98358
783	8.55290	3.2929191	47.3419	6.695570	30.98252
784	8.54761	3.2926363	47.5024	6.696306	30.98414
785	8.54199	3.2919762	47.6630	6.697249	30.98211
786	8.53535	3.2912471	47.8326	6.698341	30.98026
787	8.52683	3.2903608	47.9841	6.699721	30.97842
788	8.51620	3.2894873	48.1598	6.701336	30.97856
789	8.50476	3.2888275	48.3263	6.702949	30.98163
790	8.49155	3.2883187	48.4868	6.704699	30.98785
791	8.47786	3.2879732	48.6535	6.706432	30.99619
792	8.46557	3.2872193	48.8353	6.708188	30.99903
793	8.45248	3.2862770	49.0049	6.710121	31.00061
794	8.43805	3.2861202	49.1684	6.711857	31.01158
795	8.42443	3.2854293	49.3321	6.713740	31.01626
796	8.40931	3.2850148	49.4926	6.715672	31.02516
797	8.39355	3.2844560	49.6472	6.717744	31.03312
798	8.37640	3.2841735	49.8076	6.719852	31.04520
799	8.36312	3.2849904	49.9713	6.721017	31.06539
800	8.35173	3.2845508	50.1348	6.722533	31.07076
801	8.33825	3.2834832	50.3013	6.724576	31.07139
802	8.31613	3.2808773	50.4649	6.728317	31.06351
803	8.28914	3.2791197	50.6314	6.732239	31.06882
804	8.26206	3.2775507	50.7860	6.736089	31.07620
805	8.23489	3.2763900	50.9527	6.739768	31.08794
806	8.20779	3.2752984	51.1132	6.743410	31.10037
807	8.18275	3.2740125	51.2766	6.746907	31.10894
808	8.15654	3.2740442	51.4463	6.749938	31.13242
809	8.12923	3.2743269	51.6068	6.752984	31.15957
810	8.10621	3.2743271	51.7765	6.755663	31.17995
811	8.08913	3.2747289	51.9309	6.757468	31.19931
812	8.07461	3.2743903	52.0884	6.759315	31.20859
813	8.06133	3.2742023	52.2491	6.760950	31.21836
814	8.04923	3.2739829	52.4067	6.762463	31.22675
815	8.03441	3.2730420	52.5671	6.764625	31.22994
816	8.02050	3.2724463	52.7306	6.766523	31.23597
817	8.00729	3.2720890	52.9033	6.768231	31.24390
818	7.99594	3.2724467	53.0608	6.769391	31.25774
819	7.98817	3.2725723	53.2242	6.770243	31.26594
820	7.98194	3.2725097	53.3847	6.771001	31.27076
821	7.97694	3.2725411	53.5423	6.771573	31.27550
822	7.97289	3.2724158	53.7090	6.772106	31.27771
823	7.96975	3.2723531	53.8758	6.772505	31.27978
824	7.96688	3.2723532	54.0269	6.772843	31.28228
825	7.96092	3.2716006	54.1906	6.773890	31.27956
826	7.95315	3.2708230	54.3602	6.775159	31.27819
827	7.94597	3.2703842	54.5267	6.776204	31.27988
828	7.94002	3.2701334	54.6904	6.777019	31.28248
829	7.93443	3.2696632	54.8539	6.777892	31.28241
830	7.92954	3.2695003	55.0176	6.778542	31.28499
831	7.91875	3.2681963	55.1934	6.780411	31.28073
832	7.90409	3.2673188	55.3659	6.782536	31.28447
833	7.89065	3.2670682	55.5324	6.784227	31.29377
834	7.87923	3.2666985	55.6777	6.785738	31.30000
835	7.87005	3.2663539	55.8473	6.786976	31.30449
836	7.86203	3.2663854	56.0110	6.787903	31.31194
837	7.85476	3.2660721	56.1746	6.788904	31.31505
838	7.84856	3.2659469	56.3412	6.789692	31.31921
839	7.84362	3.2659156	56.5047	6.790288	31.32323
840	7.83911	3.2657904	56.6655	6.790878	31.32587
841	7.83529	3.2658218	56.8288	6.791313	31.32956
842	7.83110	3.2656339	56.9924	6.791895	31.33124
843	7.82575	3.2652015	57.1621	6.792728	31.33138
844	7.81933	3.2648882	57.3227	6.793629	31.33373
845	7.81324	3.2646941	57.4924	6.794437	31.33706
846	7.80576	3.2641678	57.6529	6.795562	31.33810
847	7.79628	3.2635789	57.8224	6.796953	31.34028
848	7.78658	3.2629838	57.9891	6.798372	31.34258
849	7.77620	3.2625453	58.1526	6.799799	31.34716
850	7.76387	3.2616120	58.3193	6.801687	31.34824
851	7.74915	3.2613616	58.4857	6.803536	31.35872
852	7.73756	3.2613931	58.6402	6.804886	31.36941
853	7.72656	3.2603346	58.8040	6.806679	31.36796
854	7.71677	3.2596145	58.9854	6.808171	31.36900
855	7.70958	3.2594330	59.1642	6.809105	31.37346
856	7.70456	3.2602098	59.3278	6.809335	31.38619
857	7.70028	3.2596775	59.4913	6.810092	31.38430
858	7.69631	3.2595585	59.6580	6.810617	31.38652
859	7.69272	3.2595273	59.8126	6.811058	31.38936
860	7.68897	3.2589637	59.9822	6.811768	31.38665
861	7.68331	3.2584315	60.1395	6.812686	31.38599
862	7.67402	3.2579056	60.3063	6.814032	31.38868
863	7.65986	3.2564093	60.4788	6.816406	31.38539
864	7.64207	3.2555393	60.6424	6.818916	31.39206
865	7.62297	3.2540122	60.8180	6.821892	31.39289
866	7.59533	3.2518096	60.9817	6.826197	31.39420
867	7.56893	3.2511592	61.1363	6.829628	31.41101
868	7.54938	3.2502584	61.2936	6.832368	31.41896
869	7.53490	3.2498833	61.4601	6.834262	31.42796
870	7.52348	3.2500086	61.6208	6.835558	31.43956
871	7.51454	3.2496959	61.7753	6.836769	31.44423
872	7.50601	3.2492018	61.9448	6.838016	31.44657
873	7.49949	3.2488266	62.1146	6.838970	31.44838
874	7.49439	3.2488267	62.2813	6.839577	31.45292
875	7.48992	3.2486767	62.4479	6.840181	31.45529
876	7.48498	3.2482077	62.5994	6.840993	31.45466
877	7.47883	3.2477762	62.7628	6.841930	31.45553
878	7.46731	3.2466256	62.9294	6.843845	31.45354
879	7.45307	3.2449187	63.1051	6.846350	31.44804
880	7.43416	3.2436498	63.2655	6.849202	31.45148
881	7.41185	3.2431562	63.4201	6.852090	31.46634
882	7.38803	3.2414189	63.5897	6.855755	31.46920
883	7.36779	3.2405567	63.7501	6.858578	31.47823
884	7.35275	3.2405569	63.9168	6.860372	31.49183
885	7.34006	3.2403071	64.0712	6.862005	31.50059
886	7.32990	3.2397511	64.2379	6.863485	31.50377
887	7.32131	3.2395951	64.3953	6.864586	31.50983
888	7.31477	3.2391016	64.5529	6.865606	31.51040
889	7.30979	3.2390392	64.7196	6.866232	31.51418
890	7.30602	3.2390705	64.8738	6.866670	31.51787
891	7.30241	3.2390394	65.0466	6.867119	31.52075
892	7.29838	3.2386083	65.2102	6.867809	31.51970
893	7.29524	3.2383273	65.3708	6.868322	31.51945
894	7.29205	3.2378338	65.5373	6.868943	31.51696
895	7.28713	3.2376153	65.6948	6.869638	31.51901
896	7.28106	3.2369657	65.8584	6.870677	31.51746
897	7.27405	3.2364724	66.0189	6.871754	31.51845
898	7.26799	3.2366911	66.1734	6.872376	31.52626
899	7.26166	3.2360728	66.3309	6.873432	31.52528
900	7.24984	3.2349613	66.5035	6.875381	31.52397
901	7.23860	3.2348054	66.6671	6.876802	31.53246
902	7.23009	3.2346182	66.8215	6.877914	31.53813
903	7.21974	3.2338502	66.9791	6.879523	31.53920
904	7.20841	3.2331074	67.1306	6.881240	31.54145
905	7.19494	3.2321523	67.2972	6.883316	31.54334
906	7.17745	3.2302674	67.4546	6.886323	31.53885
907	7.15971	3.2296247	67.6184	6.888762	31.54802
908	7.14036	3.2289447	67.7820	6.891413	31.55826
909	7.12311	3.2270667	67.9393	6.894395	31.55362
910	7.10639	3.2258005	68.1061	6.897020	31.55512
911	7.09170	3.2251581	68.2604	6.899099	31.56152
912	7.07826	3.2242976	68.4272	6.901134	31.56440
913	7.06525	3.2235930	68.5937	6.903045	31.56859
914	7.05318	3.2232189	68.7602	6.904682	31.57551
915	7.03799	3.2214357	68.9267	6.907380	31.56999
916	7.01210	3.2175026	69.0934	6.912418	31.55092
917	6.97018	3.2123507	69.3084	6.919995	31.53323
918	6.91233	3.2108504	69.4901	6.927727	31.56986
919	6.85937	3.2129312	69.6447	6.933118	31.64114
920	6.81445	3.2076638	69.8052	6.941158	31.62494
921	6.74716	3.2017406	69.9749	6.952261	31.62213
922	6.68132	3.2000930	70.1262	6.961099	31.66478
923	6.62521	3.1970716	70.2809	6.969449	31.68346
924	6.57740	3.1957916	70.4444	6.975933	31.71361
925	6.53664	3.1954564	70.6109	6.981091	31.74767
926	6.50146	3.1937539	70.7685	6.986255	31.76154
927	6.47395	3.1925362	70.9260	6.990242	31.77363
928	6.45092	3.1917163	71.0835	6.993482	31.78596
929	6.42627	3.1899523	71.2349	6.997400	31.78939
930	6.40332	3.1885862	71.4015	7.000913	31.79561
931	6.38319	3.1877666	71.5621	7.003804	31.80525
932	6.36707	3.1872763	71.7286	7.006039	31.81479
933	6.34778	3.1861216	71.8890	7.009000	31.81995
934	6.32661	3.1845449	72.0468	7.012410	31.82221
935	6.30750	3.1837258	72.1951	7.015185	31.83093
936	6.29253	3.1824847	72.3617	7.017664	31.83110
937	6.27915	3.1816037	72.5193	7.019766	31.83378
938	6.26787	3.1810888	72.6860	7.021425	31.83855
939	6.25939	3.1809710	72.8433	7.022534	31.84510
940	6.25255	3.1803631	72.9978	7.023692	31.84468
941	6.24714	3.1798730	73.1615	7.024613	31.84424
942	6.24255	3.1795753	73.3220	7.025335	31.84516
943	6.23857	3.1793335	73.4734	7.025954	31.84613
944	6.23454	3.1789365	73.6279	7.026657	31.84542
945	6.23067	3.1781798	73.7974	7.027526	31.84058
946	6.22704	3.1777581	73.9581	7.028192	31.83921
947	6.22455	3.1778822	74.1155	7.028441	31.84285
948	6.22154	3.1776404	74.2669	7.028940	31.84292
949	6.21776	3.1766978	74.4335	7.029890	31.83591
950	6.21358	3.1765800	74.5972	7.030471	31.83844
951	6.21012	3.1767599	74.7486	7.030812	31.84361
952	6.20650	3.1763383	74.8999	7.031479	31.84225
953	6.20252	3.1760345	75.0636	7.032129	31.84252
954	6.19900	3.1759726	75.2210	7.032600	31.84505
955	6.19569	3.1753092	75.3848	7.033352	31.84071
956	6.19294	3.1750984	75.5482	7.033804	31.84087
957	6.19085	3.1747637	75.7058	7.034237	31.83903
958	6.18657	3.1744289	75.8754	7.034942	31.83925
959	6.17979	3.1739455	76.0299	7.036032	31.84015
960	6.17292	3.1733132	76.1905	7.037210	31.83949
961	6.16619	3.1730096	76.3538	7.038203	31.84234
962	6.16110	3.1728299	76.5084	7.038929	31.84504
963	6.15677	3.1726812	76.6690	7.039546	31.84737
964	6.15240	3.1722536	76.8265	7.040311	31.84665
965	6.14919	3.1718942	76.9840	7.040896	31.84558
966	6.14629	3.1721980	77.1415	7.041104	31.85161
967	6.14405	3.1720245	77.2960	7.041474	31.85170
968	6.14160	3.1715287	77.4565	7.042035	31.84840
969	6.13830	3.1712003	77.6141	7.042617	31.84778
970	6.13407	3.1705063	77.7745	7.043500	31.84395
971	6.12700	3.1702027	77.9322	7.044537	31.84713
972	6.11916	3.1700232	78.0927	7.045606	31.85240
973	6.11047	3.1693107	78.2503	7.047055	31.85256
974	6.10279	3.1688461	78.4227	7.048251	31.85451
975	6.09704	3.1692366	78.5772	7.048768	31.86418
976	6.09231	3.1689640	78.7257	7.049499	31.86551
977	6.08718	3.1686048	78.8925	7.050326	31.86625
978	6.08240	3.1676384	79.0680	7.051420	31.85989
979	6.07849	3.1659722	79.2981	7.052767	31.84490
980	6.07625	3.1665235	79.5010	7.052766	31.85304
981	6.07422	3.1698444	79.6403	7.051318	31.89188
982	6.07244	3.1692372	79.7916	7.051854	31.88671
983	6.06705	3.1664928	79.9555	7.053937	31.86112
984	6.06258	3.1667345	80.1190	7.054373	31.86793
985	6.06131	3.1666416	80.2797	7.054582	31.86802
986	6.05969	3.1661895	80.4431	7.055021	31.86443
987	6.05842	3.1667966	80.6068	7.054870	31.87231
988	6.05761	3.1672798	80.7612	7.054727	31.87838
989	6.05588	3.1667038	80.9187	7.055241	31.87351
990	6.05390	3.1665428	81.0731	7.055574	31.87350
991	6.05207	3.1664314	81.2277	7.055862	31.87390
992	6.04983	3.1664067	81.3881	7.056157	31.87565
993	6.04704	3.1659794	81.5517	7.056728	31.87344
994	6.04430	3.1659237	81.7123	7.057102	31.87532
995	6.04135	3.1658433	81.8699	7.057513	31.87711
996	6.03750	3.1653479	82.0303	7.058252	31.87514
997	6.03328	3.1652612	82.1848	7.058825	31.87806
998	6.02993	3.1653171	82.3363	7.059217	31.88176
999	6.02694	3.1650508	82.5058	7.059731	31.88153
1000	6.02435	3.1648651	82.6634	7.060153	31.88181
1001	6.02206	3.1646670	82.8239	7.060543	31.88168
1002	6.02003	3.1643575	82.9906	7.060959	31.88005
1003	6.01866	3.1648963	83.1482	7.060856	31.88728
1004	6.01800	3.1654414	83.3027	7.060661	31.89390
1005	6.01638	3.1646549	83.4659	7.061272	31.88658
1006	6.01455	3.1644754	83.6327	7.061596	31.88621
1007	6.01288	3.1646550	83.7842	7.061716	31.88972
1008	6.00923	3.1641721	83.9388	7.062424	31.88770
1009	6.00151	3.1632434	84.1022	7.063868	31.88451
1010	5.99203	3.1626677	84.2629	7.065351	31.88693
1011	5.98148	3.1618568	84.4173	7.067090	31.88773
1012	5.96901	3.1613927	84.5838	7.068890	31.89421
1013	5.95472	3.1608667	84.7383	7.070950	31.90172
1014	5.94109	3.1602294	84.9021	7.072987	31.90736
1015	5.92995	3.1603224	85.0655	7.074335	31.91883
1016	5.92260	3.1606506	85.2170	7.075087	31.92935
1017	5.91891	3.1613006	85.3685	7.075216	31.94003
1018	5.91673	3.1617340	85.5200	7.075267	31.94686
1019	5.91430	3.1617650	85.6924	7.075558	31.94942
1020	5.91182	3.1618270	85.8441	7.075840	31.95238
1021	5.90964	3.1616785	86.0074	7.076192	31.95270
1022	5.90737	3.1616848	86.1833	7.076478	31.95484
1023	5.90418	3.1617096	86.3498	7.076868	31.95805
1024	5.90109	3.1617654	86.5102	7.077228	31.96151
1025	5.89846	3.1617655	86.6681	7.077561	31.96392
1026	5.89578	3.1614375	86.8344	7.078070	31.96270
1027	5.89365	3.1616852	86.9981	7.078211	31.96740
1028	5.89234	3.1619514	87.1526	7.078241	31.97155
1029	5.89107	3.1616791	87.3131	7.078544	31.96962
1030	5.89021	3.1614377	87.4767	7.078781	31.96765
1031	5.88945	3.1615864	87.6371	7.078802	31.96996
1032	5.88930	3.1615864	87.7918	7.078824	31.97003
1033	5.88890	3.1617784	87.9430	7.078779	31.97248
1034	5.88814	3.1617103	88.1006	7.078913	31.97236
1035	5.88576	3.1616175	88.2642	7.079262	31.97349
1036	5.87969	3.1614691	88.4309	7.080102	31.97749
1037	5.87109	3.1610792	88.5883	7.081384	31.98118
1038	5.85815	3.1605099	88.7428	7.083304	31.98697
1039	5.84318	3.1603244	88.9003	7.085278	31.99897
1040	5.83035	3.1593900	89.0730	7.087376	32.00057
1041	5.81974	3.1580968	89.3031	7.089384	31.99600
1042	5.81206	3.1587591	89.5182	7.090006	32.01059
1043	5.80863	3.1613340	89.6606	7.089099	32.04267
1044	5.80717	3.1617117	89.7937	7.089088	32.04824
1045	5.80363	3.1603561	89.9575	7.090241	32.03630
1046	5.79934	3.1607462	90.1180	7.090580	32.04467
1047	5.79712	3.1609257	90.2785	7.090768	32.04871
1048	5.79505	3.1607339	90.4330	7.091131	32.04845
1049	5.79217	3.1609259	90.5966	7.091396	32.05325
1050	5.79005	3.1611674	90.7601	7.091539	32.05790
1051	5.78783	3.1610189	90.9146	7.091899	32.05826
1052	5.78430	3.1607157	91.0780	7.092504	32.05813
1053	5.77834	3.1603506	91.2356	7.093445	32.05961
1054	5.76654	3.1596018	91.3903	7.095320	32.06234
1055	5.75423	3.1591811	91.5536	7.097088	32.06922
1056	5.74308	3.1593360	91.7173	7.098410	32.08147
1057	5.73345	3.1592743	91.8749	7.099655	32.08986
1058	5.72569	3.1593054	92.0203	7.100617	32.09752
1059	5.71854	3.1590951	92.1777	7.101630	32.10189
1060	5.70765	3.1581298	92.3382	7.103507	32.10131
1061	5.69677	3.1570472	92.4958	7.105446	32.09940
1062	5.68595	3.1564162	92.6533	7.107142	32.10253
1063	5.67703	3.1561318	92.8018	7.108416	32.10774
1064	5.66833	3.1556370	92.9623	7.109775	32.11039
1065	5.65846	3.1551856	93.1169	7.111258	32.11462
1066	5.64885	3.1544682	93.2715	7.112848	32.11562
1067	5.64005	3.1540168	93.4288	7.114198	32.11885
1068	5.63130	3.1539118	93.5865	7.115360	32.12593
1069	5.62079	3.1536275	93.7440	7.116838	32.13267
1070	5.61033	3.1532071	93.9016	7.118381	32.13783
1071	5.59923	3.1530898	94.0559	7.119847	32.14704
1072	5.58827	3.1525457	94.2165	7.121519	32.15128
1073	5.57828	3.1523975	94.3770	7.122863	32.15907
1074	5.57175	3.1528799	94.5375	7.123436	32.17069
1075	5.56854	3.1533562	94.6951	7.123594	32.17906
1076	5.56839	3.1540799	94.8497	7.123234	32.18731
1077	5.56999	3.1552180	95.0132	7.122434	32.19855
1078	5.57301	3.1562264	95.1586	7.121525	32.20699
1079	5.57557	3.1567213	95.3132	7.120945	32.21005
1080	5.57793	3.1572040	95.4799	7.120396	32.21316
1081	5.58094	3.1578042	95.6310	7.119703	32.21698
1082	5.58426	3.1584044	95.7886	7.118972	32.22051
1083	5.58717	3.1590233	95.9401	7.118282	32.22464
1084	5.58642	3.1593947	96.0947	7.118185	32.22948
1085	5.57963	3.1591534	96.2523	7.119170	32.23317
1086	5.57245	3.1588874	96.4158	7.120219	32.23697
1087	5.56718	3.1588875	96.5672	7.120887	32.24194
1088	5.56100	3.1587329	96.7219	7.121751	32.24604
1089	5.55322	3.1581019	96.8854	7.123069	32.24628
1090	5.54655	3.1580772	97.0458	7.123928	32.25233
1091	5.54098	3.1578917	97.2004	7.124733	32.25549
1092	5.53491	3.1575948	97.3577	7.125659	32.25788
1093	5.52949	3.1574959	97.5091	7.126399	32.26189
1094	5.52422	3.1571124	97.6728	7.127270	32.26252
1095	5.51840	3.1568402	97.8303	7.128152	32.26495
1096	5.51369	3.1567847	97.9850	7.128781	32.26877
1097	5.50812	3.1565744	98.1456	7.129599	32.27165
1098	5.49990	3.1558816	98.2999	7.131008	32.27163
1099	5.48682	3.1544096	98.4544	7.133445	32.26744
1100	5.47304	3.1530615	98.6209	7.135906	32.26533
1101	5.46036	3.1519177	98.7756	7.138121	32.26446
1102	5.44849	3.1505638	98.9392	7.140346	32.26044
1103	5.43768	3.1488949	99.1392	7.142608	32.25180
1104	5.42797	3.1485922	99.3087	7.144004	32.25762
1105	5.41931	3.1494021	99.4691	7.144674	32.27505
1106	5.41286	3.1487717	99.6176	7.145831	32.27403
1107	5.40680	3.1482835	99.7812	7.146862	32.27423
1108	5.40030	3.1483516	99.9355	7.147654	32.28118
1109	5.39360	3.1482652	100.0872	7.148554	32.28657
1110	5.38765	3.1480243	100.2479	7.149441	32.28948
1111	5.38305	3.1481603	100.4051	7.149956	32.29538
1112	5.37950	3.1481728	100.5629	7.150403	32.29886
1113	5.37605	3.1479936	100.7112	7.150940	32.30007
1114	5.37260	3.1479628	100.8779	7.151398	32.30296
1115	5.36950	3.1483275	101.0352	7.151600	32.31001
1116	5.36640	3.1489210	101.1899	7.151680	32.31967
1117	5.36410	3.1494650	101.3474	7.151685	32.32799
1118	5.36230	3.1502749	101.5109	7.151485	32.33885
1119	5.36105	3.1506644	101.6682	7.151439	32.34440
1120	5.36021	3.1512271	101.8137	7.151249	32.35154
1121	5.35996	3.1516847	101.9714	7.151040	32.35691
1122	5.35986	3.1513509	102.1287	7.151235	32.35313
1123	5.35951	3.1514128	102.2893	7.151250	32.35409
1124	5.36031	3.1517158	102.4406	7.150990	32.35669
1125	5.36225	3.1522723	102.5892	7.150449	32.36106
1126	5.36470	3.1530330	102.7499	7.149737	32.36727
1127	5.36795	3.1536947	102.8984	7.148975	32.37158
1128	5.37160	3.1546534	103.0527	7.148004	32.37888
1129	5.37685	3.1555874	103.1983	7.146844	32.38435
1130	5.38225	3.1563298	103.3589	7.145768	32.38749
1131	5.38740	3.1572084	103.5013	7.144651	32.39243
1132	5.39360	3.1581056	103.6648	7.143392	32.39655
1133	5.40155	3.1591018	103.8161	7.141858	32.40012
1134	5.40875	3.1598816	103.9766	7.140535	32.40194
1135	5.41796	3.1611815	104.1312	7.138683	32.40773
1136	5.42912	3.1630449	104.2826	7.136285	32.41803
1137	5.43883	3.1644567	104.4282	7.134311	32.42460
1138	5.44684	3.1658129	104.5887	7.132583	32.43217
1139	5.45450	3.1667792	104.7432	7.131107	32.43566
1140	5.46046	3.1674792	104.8918	7.129987	32.43777
1141	5.46432	3.1678323	105.0402	7.129317	32.43798
1142	5.46682	3.1682289	105.2037	7.128794	32.43997
1143	5.46863	3.1685882	105.3491	7.128379	32.44223
1144	5.46998	3.1686192	105.5003	7.128196	32.44120
1145	5.47053	3.1687990	105.6488	7.128035	32.44264
1146	5.47053	3.1690407	105.8005	7.127910	32.44530
1147	5.46993	3.1692514	105.9518	7.127877	32.44820
1148	5.46833	3.1695241	106.0973	7.127938	32.45277
1149	5.46617	3.1696729	106.2549	7.128134	32.45646
1150	5.46312	3.1699456	106.4093	7.128378	32.46242
1151	5.45886	3.1703671	106.5486	7.128694	32.47125
1152	5.45285	3.1705407	106.7061	7.129363	32.47895
1153	5.44504	3.1707330	106.8576	7.130249	32.48862
1154	5.43688	3.1710926	107.0060	7.131091	32.50052
1155	5.42922	3.1712786	107.1604	7.131961	32.50997
1156	5.42211	3.1713965	107.3152	7.132798	32.51812
1157	5.41426	3.1717003	107.4696	7.133630	32.52910
1158	5.40695	3.1718802	107.6210	7.134459	32.53815
1159	5.39995	3.1717873	107.7725	7.135396	32.54381
1160	5.39380	3.1720044	107.9331	7.136060	32.55217
1161	5.38820	3.1722152	108.0754	7.136658	32.55993
1162	5.38335	3.1723331	108.2329	7.137210	32.56590
1163	5.37895	3.1723952	108.3967	7.137736	32.57079
1164	5.37465	3.1722961	108.5752	7.138336	32.57375
1165	5.37070	3.1723334	108.7661	7.138819	32.57792
1166	5.36585	3.1728480	108.9357	7.139160	32.58840
1167	5.36145	3.1732696	109.0690	7.139493	32.59740
1168	5.35791	3.1729970	109.2236	7.140090	32.59767
1169	5.35321	3.1732388	109.3781	7.140558	32.60491
1170	5.34911	3.1731583	109.5324	7.141122	32.60790
1171	5.34547	3.1729104	109.6931	7.141718	32.60855
1172	5.34242	3.1729973	109.8414	7.142060	32.61243
1173	5.33962	3.1729416	109.9960	7.142447	32.61444
1174	5.33693	3.1727309	110.1474	7.142903	32.61459
1175	5.33458	3.1726690	110.3020	7.143236	32.61609
1176	5.33298	3.1726133	110.4656	7.143472	32.61693
1177	5.33173	3.1726381	110.6199	7.143620	32.61835
1178	5.33068	3.1727312	110.7745	7.143706	32.62035
1179	5.32943	3.1727560	110.9259	7.143854	32.62177
1180	5.32814	3.1726073	111.0836	7.144101	32.62127
1181	5.32694	3.1726694	111.2471	7.144223	32.62306
1182	5.32579	3.1726756	111.4107	7.144369	32.62416
1183	5.32479	3.1728182	111.5591	7.144422	32.62669
1184	5.32404	3.1727873	111.7105	7.144537	32.62699
1185	5.32354	3.1727564	111.8741	7.144621	32.62704
1186	5.32349	3.1730292	112.0316	7.144485	32.63012
1187	5.32479	3.1734260	112.1919	7.144112	32.63329
1188	5.32634	3.1737980	112.3528	7.143722	32.63594
1189	5.32789	3.1740274	112.5102	7.143407	32.63697
1190	5.32958	3.1742692	112.6709	7.143067	32.63799
1191	5.33163	3.1745421	112.8376	7.142667	32.63902
1192	5.33353	3.1747839	112.9919	7.142302	32.63985
1193	5.33513	3.1748769	113.1526	7.142054	32.63927
1194	5.33708	3.1751498	113.3100	7.141666	32.64040
1195	5.34007	3.1755529	113.4703	7.141076	32.64199
1196	5.34282	3.1760242	113.6280	7.140481	32.64461
1197	5.34522	3.1763591	113.7918	7.140004	32.64600
1198	5.34836	3.1769049	113.9583	7.139319	32.64907
1199	5.35171	3.1773887	114.1309	7.138643	32.65123
1200	5.35436	3.1779035	114.2913	7.138038	32.65443
1201	5.35646	3.1782013	114.4519	7.137618	32.65570
1202	5.35786	3.1784432	114.6277	7.137316	32.65700
1203	5.35851	3.1785673	114.7790	7.137172	32.65770
1204	5.35881	3.1787163	114.9518	7.137059	32.65902
1205	5.35876	3.1787784	115.1244	7.137036	32.65969
1206	5.35866	3.1788715	115.2848	7.137002	32.66077
1207	5.35871	3.1790514	115.4546	7.136904	32.66268
1208	5.35861	3.1790639	115.6213	7.136914	32.66284
1209	5.35861	3.1791756	115.7847	7.136858	32.66403
1210	5.35841	3.1792625	115.9484	7.136841	32.66513
1211	5.35796	3.1793246	116.1179	7.136868	32.66619
1212	5.35741	3.1795046	116.2876	7.136846	32.66869
1213	5.35666	3.1795977	116.4481	7.136894	32.67040
1214	5.35541	3.1796908	116.6086	7.137006	32.67259
1215	5.35386	3.1797033	116.7841	7.137198	32.67416
1216	5.35246	3.1798398	116.9570	7.137306	32.67699
1217	5.35091	3.1798709	117.1235	7.137488	32.67877
1218	5.34981	3.1799330	117.3022	7.137598	32.68046
1219	5.34891	3.1800510	117.4659	7.137652	32.68260
1220	5.34781	3.1799890	117.6385	7.137828	32.68288
1221	5.34617	3.1799022	117.8022	7.138086	32.68341
1222	5.34467	3.1798340	117.9809	7.138315	32.68401
1223	5.34227	3.1796914	118.1503	7.138698	32.68464
1224	5.33937	3.1795984	118.3201	7.139117	32.68632
1225	5.33638	3.1792945	118.4927	7.139661	32.68569
1226	5.33313	3.1788107	118.6865	7.140334	32.68325
1227	5.32983	3.1788418	118.8652	7.140737	32.68673
1228	5.32674	3.1790963	119.0196	7.140995	32.69257
1229	5.32369	3.1787800	119.1861	7.141552	32.69186
1230	5.32040	3.1784761	119.3528	7.142134	32.69152
1231	5.31675	3.1783893	119.5284	7.142645	32.69400
1232	5.31256	3.1782964	119.6889	7.143228	32.69695
1233	5.30737	3.1779615	119.8497	7.144066	32.69812
1234	5.30213	3.1775398	120.0102	7.144957	32.69835
1235	5.29704	3.1772484	120.1737	7.145759	32.69992
1236	5.29330	3.1771183	120.3251	7.146305	32.70201
1237	5.29035	3.1769633	120.5039	7.146764	32.70303
1238	5.28916	3.1771804	120.6767	7.146803	32.70658
1239	5.28931	3.1775092	120.8404	7.146612	32.71011
1240	5.28980	3.1778752	121.0036	7.146357	32.71371
1241	5.29060	3.1780862	121.1704	7.146147	32.71525
1242	5.29245	3.1783343	121.3460	7.145785	32.71619
1243	5.29514	3.1786941	121.5065	7.145256	32.71758
1244	5.29799	3.1789919	121.6702	7.144741	32.71812
1245	5.30118	3.1794200	121.8366	7.144113	32.71980
1246	5.30378	3.1797240	122.0004	7.143627	32.72064
1247	5.30557	3.1799040	122.1670	7.143307	32.72086
1248	5.30647	3.1800219	122.3335	7.143135	32.72124
1249	5.30662	3.1800902	122.5001	7.143083	32.72179
1250	5.30617	3.1800840	122.6666	7.143147	32.72208
1251	5.30452	3.1799910	122.8334	7.143409	32.72254
1252	5.30268	3.1798732	122.9939	7.143709	32.72292
1253	5.30068	3.1796934	123.1634	7.144061	32.72274
1254	5.29884	3.1795694	123.3272	7.144364	32.72304
1255	5.29704	3.1793585	123.4877	7.144707	32.72231
1256	5.29420	3.1791476	123.6725	7.145184	32.72259
1257	5.29055	3.1789616	123.8329	7.145747	32.72395
1258	5.28761	3.1789059	124.0114	7.146153	32.72610
1259	5.28517	3.1788439	124.1780	7.146498	32.72770
1260	5.28317	3.1788440	124.3508	7.146754	32.72956
1261	5.28162	3.1789061	124.5144	7.146920	32.73170
1262	5.27978	3.1787511	124.6840	7.147240	32.73165
1263	5.27833	3.1787201	124.8505	7.147444	32.73263
1264	5.27903	3.1788753	125.0172	7.147276	32.73363
1265	5.28132	3.1793282	125.1778	7.146748	32.73648
1266	5.28357	3.1797252	125.3413	7.146255	32.73873
1267	5.28507	3.1798742	125.5048	7.145990	32.73888
1268	5.28536	3.1798432	125.6594	7.145973	32.73816
1269	5.28512	3.1797750	125.8376	7.146045	32.73754
1270	5.28402	3.1796944	126.0045	7.146231	32.73761
1271	5.28267	3.1795394	126.1651	7.146487	32.73707
1272	5.28122	3.1795084	126.3377	7.146691	32.73805
1273	5.28048	3.1796326	126.5044	7.146723	32.74011
1274	5.28038	3.1797815	126.6710	7.146659	32.74182
1275	5.28068	3.1799677	126.8315	7.146526	32.74358
1276	5.28132	3.1801601	126.9982	7.146345	32.74505
1277	5.28212	3.1802966	127.1556	7.146174	32.74575
1278	5.28317	3.1805076	127.3193	7.145933	32.74705
1279	5.28427	3.1806628	127.4921	7.145715	32.74766
1280	5.28536	3.1808427	127.6584	7.145484	32.74856
1281	5.28616	3.1809359	127.8250	7.145338	32.74876
1282	5.28656	3.1809049	127.9977	7.145308	32.74793
1283	5.28671	3.1809235	128.1491	7.145283	32.74792
1284	5.28616	3.1808740	128.3158	7.145382	32.74780
1285	5.28507	3.1807561	128.4916	7.145588	32.74745
1286	5.28422	3.1805390	128.6701	7.145816	32.74571
1287	5.28282	3.1799683	128.8910	7.146303	32.74045
1288	5.28088	3.1797822	129.0911	7.146653	32.74013
1289	5.27888	3.1801174	129.2486	7.146729	32.74583
1290	5.27738	3.1803470	129.4001	7.146798	32.74983
1291	5.27614	3.1800244	129.5574	7.147132	32.74729
1292	5.27474	3.1798756	129.7272	7.147393	32.74688
1293	5.27379	3.1798446	129.8876	7.147533	32.74737
1294	5.27320	3.1798136	130.0481	7.147629	32.74752
1295	5.27290	3.1799068	130.2119	7.147620	32.74879
1296	5.27255	3.1799006	130.3694	7.147671	32.74899
1297	5.27225	3.1798448	130.5238	7.147743	32.74857
1298	5.27170	3.1797518	130.6782	7.147865	32.74796
1299	5.27115	3.1796960	130.8449	7.147969	32.74778
1300	5.27075	3.1796340	130.9965	7.148056	32.74739
1301	5.27025	3.1796031	131.1538	7.148139	32.74744
1302	5.26985	3.1796031	131.3143	7.148193	32.74775
1303	5.26911	3.1795163	131.4749	7.148338	32.74741
1304	5.26846	3.1794792	131.6444	7.148444	32.74754
1305	5.26811	3.1794544	131.7930	7.148505	32.74752
1306	5.26766	3.1794544	131.9537	7.148565	32.74788
1307	5.26726	3.1793614	132.1142	7.148669	32.74713
1308	5.26701	3.1793925	132.2747	7.148688	32.74765
1309	5.26646	3.1794236	132.4500	7.148745	32.74845
1310	5.26522	3.1793926	132.6045	7.148922	32.74924
1311	5.26392	3.1794237	132.7682	7.149073	32.75078
1312	5.26252	3.1793617	132.9226	7.149286	32.75136
1313	5.26123	3.1793308	133.0923	7.149471	32.75219
1314	5.26003	3.1793619	133.2619	7.149609	32.75363
1315	5.25893	3.1795729	133.4102	7.149638	32.75704
1316	5.25769	3.1796970	133.5711	7.149733	32.75959
1317	5.25649	3.1798398	133.7346	7.149811	32.76231
1318	5.25584	3.1801811	133.8948	7.149714	32.76676
1319	5.25564	3.1805720	134.0707	7.149533	32.77133
1320	5.25624	3.1811181	134.2282	7.149169	32.77690
1321	5.25719	3.1815463	134.3915	7.148823	32.78078
1322	5.25789	3.1817573	134.5522	7.148625	32.78242
1323	5.25879	3.1820863	134.7189	7.148340	32.78521
1324	5.25933	3.1823966	134.8794	7.148108	32.78814
1325	5.25928	3.1827256	135.0399	7.147941	32.79186
1326	5.25879	3.1832098	135.2003	7.147748	32.79780
1327	5.25744	3.1837560	135.3637	7.147629	32.80527
1328	5.25579	3.1841534	135.5215	7.147627	32.81134
1329	5.25440	3.1844886	135.6822	7.147627	32.81645
1330	5.25330	3.1846998	135.8457	7.147656	32.81985
1331	5.25226	3.1848674	135.9940	7.147702	32.82272
1332	5.25086	3.1850600	136.1514	7.147779	32.82621
1333	5.24946	3.1853084	136.3270	7.147826	32.83032
1334	5.24817	3.1854574	136.4939	7.147913	32.83321
1335	5.24677	3.1855817	136.6511	7.148026	32.83592
1336	5.24508	3.1857307	136.8088	7.148164	32.83921
1337	5.24348	3.1858239	136.9782	7.148319	32.84175
1338	5.24199	3.1860040	137.1390	7.148415	32.84519
1339	5.24059	3.1860848	137.3056	7.148551	32.84740
1340	5.23940	3.1861283	137.4692	7.148683	32.84899
1341	5.23860	3.1862153	137.6386	7.148741	32.85068
1342	5.23785	3.1862464	137.7990	7.148822	32.85169
1343	5.23710	3.1862775	137.9597	7.148904	32.85270
1344	5.23641	3.1863086	138.1172	7.148979	32.85366
1345	5.23576	3.1863708	138.2807	7.149031	32.85492
1346	5.23516	3.1864391	138.4413	7.149074	32.85621
1347	5.23451	3.1864889	138.6081	7.149133	32.85733
1348	5.23382	3.1864020	138.8048	7.149272	32.85692
1349	5.23327	3.1864890	139.0107	7.149299	32.85835
1350	5.23297	3.1867312	139.1895	7.149211	32.86132
1351	5.23282	3.1869486	139.3409	7.149117	32.86388
1352	5.23282	3.1868866	139.4861	7.149154	32.86309
1353	5.23212	3.1869177	139.6499	7.149229	32.86405
1354	5.23142	3.1869798	139.8073	7.149287	32.86537
1355	5.23093	3.1870668	139.9616	7.149307	32.86677
1356	5.23078	3.1871289	140.1284	7.149296	32.86755
1357	5.23038	3.1871911	140.2949	7.149317	32.86856
1358	5.22993	3.1872222	140.4526	7.149361	32.86928
1359	5.22958	3.1872223	140.5979	7.149408	32.86955
1360	5.22903	3.1873092	140.7614	7.149434	32.87100
1361	5.22829	3.1874956	140.9158	7.149432	32.87379
1362	5.22704	3.1876261	141.0825	7.149523	32.87642
1363	5.22560	3.1877690	141.2338	7.149632	32.87939
1364	5.22445	3.1878870	141.4003	7.149718	32.88178
1365	5.22296	3.1880423	141.5577	7.149826	32.88495
1366	5.22121	3.1882536	141.7185	7.149937	32.88899
1367	5.21962	3.1884337	141.8729	7.150045	32.89254
1368	5.21837	3.1885270	142.0273	7.150155	32.89475
1369	5.21693	3.1886202	142.1879	7.150291	32.89716
1370	5.21578	3.1887445	142.3393	7.150373	32.89963
1371	5.21489	3.1888315	142.5059	7.150443	32.90142
1372	5.21404	3.1889247	142.6695	7.150504	32.90324
1373	5.21304	3.1890117	142.8239	7.150586	32.90513
1374	5.21205	3.1891049	142.9909	7.150666	32.90709
1375	5.21105	3.1892541	143.1451	7.150715	32.90970
1376	5.21021	3.1893162	143.3056	7.150792	32.91116
1377	5.20941	3.1893473	143.4692	7.150880	32.91222
1378	5.20881	3.1894219	143.6357	7.150919	32.91358
1379	5.20812	3.1894717	143.8024	7.150984	32.91475
1380	5.20767	3.1895276	143.9478	7.151014	32.91576
1381	5.20712	3.1895898	144.1020	7.151054	32.91693
1382	5.20647	3.1896520	144.2777	7.151106	32.91819
1383	5.20582	3.1897452	144.4263	7.151141	32.91982
1384	5.20508	3.1898012	144.5866	7.151209	32.92111
1385	5.20478	3.1898633	144.7503	7.151217	32.92203
1386	5.20428	3.1899007	144.9050	7.151264	32.92287
1387	5.20393	3.1899877	145.0594	7.151264	32.92413
1388	5.20363	3.1899877	145.2200	7.151306	32.92434
1389	5.20338	3.1899878	145.3833	7.151341	32.92451
1390	5.20299	3.1899878	145.5467	7.151395	32.92482
1391	5.20284	3.1900811	145.7044	7.151368	32.92595
1392	5.20249	3.1900811	145.8680	7.151416	32.92621
1393	5.20224	3.1901371	146.0256	7.151421	32.92702
1394	5.20204	3.1901682	146.1828	7.151433	32.92749
1395	5.20169	3.1901620	146.3434	7.151484	32.92768
1396	5.20129	3.1902304	146.5040	7.151501	32.92878
1397	5.20090	3.1902305	146.6554	7.151555	32.92909
1398	5.20025	3.1903237	146.8098	7.151590	32.93072
1399	5.19980	3.1904107	146.9794	7.151604	32.93207
1400	5.19940	3.1904418	147.1430	7.151641	32.93273
1401	5.19875	3.1904730	147.2977	7.151710	32.93365
1402	5.19816	3.1905662	147.4580	7.151739	32.93522
1403	5.19766	3.1906097	147.6244	7.151782	32.93613
1404	5.19696	3.1907154	147.7790	7.151817	32.93794
1405	5.19632	3.1908086	147.9395	7.151852	32.93957
1406	5.19557	3.1909019	148.1062	7.151900	32.94128
1407	5.19487	3.1909641	148.2728	7.151959	32.94260
1408	5.19437	3.1910511	148.4211	7.151978	32.94401
1409	5.19378	3.1911133	148.5938	7.152024	32.94522
1410	5.19283	3.1912935	148.7908	7.152051	32.94812
1411	5.19179	3.1914738	148.9663	7.152090	32.95112
1412	5.19124	3.1916602	149.1329	7.152063	32.95371
1413	5.19054	3.1916292	149.2722	7.152171	32.95397
1414	5.19004	3.1916603	149.4358	7.152221	32.95473
1415	5.18940	3.1917225	149.6022	7.152273	32.95600
1416	5.18885	3.1917536	149.7658	7.152329	32.95681
1417	5.18870	3.1917847	149.9205	7.152335	32.95724
1418	5.18845	3.1918407	150.0838	7.152340	32.95804
1419	5.18835	3.1918159	150.2411	7.152370	32.95777
1420	5.18805	3.1918284	150.4050	7.152405	32.95813
1421	5.18795	3.1918719	150.5472	7.152397	32.95865
1422	5.18770	3.1918720	150.7076	7.152432	32.95882
1423	5.18755	3.1919031	150.8712	7.152438	32.95924
1424	5.18726	3.1919342	151.0260	7.152463	32.95981
1425	5.18681	3.1919653	151.1924	7.152507	32.96052
1426	5.18631	3.1919964	151.3439	7.152556	32.96129
1427	5.18591	3.1920276	151.5071	7.152594	32.96196
1428	5.18532	3.1920587	151.6648	7.152656	32.96283
1429	5.18472	3.1920898	151.8310	7.152719	32.96369
1430	5.18407	3.1921209	151.9826	7.152787	32.96460
1431	5.18347	3.1921769	152.1525	7.152836	32.96575
1432	5.18288	3.1922391	152.3068	7.152882	32.96697
1433	5.18228	3.1922702	152.4612	7.152944	32.96784
1434	5.18163	3.1923013	152.6130	7.153013	32.96875
1435	5.18133	3.1923325	152.7734	7.153037	32.96932
1436	5.18094	3.1923325	152.9216	7.153091	32.96964
1437	5.18059	3.1923139	153.0824	7.153149	32.96969
1438	5.18029	3.1923326	153.2336	7.153180	32.97012
1439	5.18024	3.1923016	153.3879	7.153207	32.96974
1440	5.18029	3.1923016	153.5517	7.153204	32.96961
1441	5.18019	3.1923328	153.7125	7.153204	32.96998
1442	5.18004	3.1923639	153.8665	7.153210	32.97041
1443	5.17989	3.1923639	154.0121	7.153232	32.97048
1444	5.17974	3.1923640	154.1574	7.153254	32.97056
1445	5.17964	3.1923640	154.3151	7.153271	32.97058
1446	5.17929	3.1924076	154.4787	7.153295	32.97133
1447	5.17905	3.1924511	154.6267	7.153306	32.97200
1448	5.17875	3.1924512	154.7843	7.153348	32.97222
1449	5.17835	3.1924512	154.9389	7.153402	32.97253
1450	5.17800	3.1925134	155.1023	7.153416	32.97351
1451	5.17735	3.1925135	155.2570	7.153501	32.97407
1452	5.17671	3.1925135	155.4113	7.153587	32.97463
1453	5.17601	3.1918177	155.5659	7.154053	32.96727
1454	5.17482	3.1922092	155.7172	7.153996	32.97285
1455	5.17312	3.1924764	155.8746	7.154070	32.97750
1456	5.17133	3.1926070	156.0231	7.154229	32.98069
1457	5.17004	3.1925449	156.1806	7.154430	32.98117
1458	5.16904	3.1922405	156.3348	7.154723	32.97859
1459	5.16845	3.1921473	156.4925	7.154852	32.97803
1460	5.16785	3.1932783	156.6502	7.154322	32.99149
1461	5.16715	3.1938252	156.8043	7.154119	32.99836
1462	5.16631	3.1939744	156.9589	7.154149	33.00083
1463	5.16541	3.1941112	157.1163	7.154192	33.00320
1464	5.16457	3.1941610	157.2647	7.154275	33.00453
1465	5.16352	3.1943413	157.4162	7.154313	33.00755
1466	5.16228	3.1944657	157.5706	7.154407	33.01012
1467	5.16133	3.1946149	157.7372	7.154450	33.01268
1468	5.16039	3.1947392	157.8827	7.154506	33.01496
1469	5.15934	3.1948885	158.0402	7.154561	33.01762
1470	5.15845	3.1950750	158.1945	7.154577	33.02056
1471	5.15740	3.1953796	158.3673	7.154548	33.02500
1472	5.15646	3.1956905	158.5609	7.154505	33.02939
1473	5.15571	3.1958957	158.7548	7.154493	33.03238
1474	5.15517	3.1960760	158.9212	7.154469	33.03490
1475	5.15462	3.1960512	159.0607	7.154554	33.03509
1476	5.15427	3.1959891	159.2030	7.154635	33.03465
1477	5.15377	3.1962316	159.3696	7.154571	33.03783
1478	5.15348	3.1963249	159.5238	7.154562	33.03912
1479	5.15348	3.1963809	159.6695	7.154535	33.03969
1480	5.15358	3.1964431	159.8270	7.154493	33.04022
1481	5.15348	3.1964742	159.9843	7.154493	33.04060
1482	5.15333	3.1965613	160.1357	7.154468	33.04167
1483	5.15298	3.1966297	160.2933	7.154479	33.04271
1484	5.15248	3.1967168	160.4446	7.154498	33.04413
1485	5.15208	3.1969034	160.5961	7.154451	33.04658
1486	5.15169	3.1969967	160.7565	7.154455	33.04796
1487	5.15139	3.1969967	160.9019	7.154496	33.04818
1488	5.15084	3.1971149	161.0532	7.154505	33.05000
1489	5.15029	3.1972393	161.2079	7.154511	33.05189
1490	5.14985	3.1974507	161.3652	7.154457	33.05467
1491	5.14930	3.1975441	161.5227	7.154479	33.05620
1492	5.14875	3.1976187	161.6742	7.154512	33.05752
1493	5.14840	3.1976623	161.8256	7.154536	33.05829
1494	5.14806	3.1976934	161.9739	7.154566	33.05892
1495	5.14751	3.1977557	162.1282	7.154605	33.06009
1496	5.14726	3.1978179	162.2890	7.154607	33.06097
1497	5.14676	3.1978490	162.4400	7.154657	33.06174
1498	5.14622	3.1978802	162.5946	7.154712	33.06256
1499	5.14482	3.1979424	162.7462	7.154858	33.06457
1500	5.14353	3.1979425	162.8976	7.155025	33.06578
1501	5.14224	3.1979736	163.0550	7.155175	33.06733
1502	5.14040	3.1979675	163.2035	7.155414	33.06901
1503	5.13771	3.1979986	163.3578	7.155739	33.07194
1504	5.13349	3.1979987	163.5092	7.156276	33.07605
1505	5.12956	3.1979677	163.6639	7.156792	33.07950
1506	5.12479	3.1980922	163.8213	7.157331	33.08557
1507	5.11982	3.1983037	163.9726	7.157847	33.09284
1508	5.11594	3.1986395	164.1272	7.158159	33.10045
1509	5.11252	3.1990065	164.2753	7.158397	33.10798
1510	5.11008	3.1992491	164.4270	7.158576	33.11310
1511	5.10869	3.1993300	164.5816	7.158712	33.11533
1512	5.10760	3.1994358	164.7297	7.158796	33.11755
1513	5.10710	3.1996162	164.8783	7.158765	33.12004
1514	5.10655	3.1996784	165.0357	7.158804	33.12121
1515	5.10641	3.1998029	165.1840	7.158759	33.12271
1516	5.10611	3.2000455	165.3354	7.158669	33.12571
1517	5.10591	3.2001948	165.4899	7.158617	33.12755
1518	5.10566	3.2003503	165.6414	7.158568	33.12950
1519	5.10531	3.2005059	165.7960	7.158532	33.13155
1520	5.10516	3.2005930	165.9352	7.158507	33.13263
1521	5.10487	3.2007174	166.0925	7.158481	33.13427
1522	5.10447	3.2007486	166.2319	7.158518	33.13495
1523	5.10422	3.2008668	166.3862	7.158489	33.13648
1524	5.10407	3.2009912	166.5317	7.158444	33.13798
1525	5.10397	3.2010224	166.6800	7.158443	33.13836
1526	5.10377	3.2010224	166.8377	7.158472	33.13848
1527	5.10372	3.2010536	166.9863	7.158465	33.13881
1528	5.10372	3.2011780	167.1343	7.158401	33.14016
1529	5.10352	3.2011781	167.2916	7.158430	33.14028
1530	5.10278	3.2010848	167.4338	7.158578	33.13988
1531	5.10169	3.2011782	167.5798	7.158669	33.14196
1532	5.10099	3.2011969	167.7343	7.158750	33.14278
1533	5.10020	3.2011783	167.8915	7.158864	33.14328
1534	5.09930	3.2010851	168.0732	7.159032	33.14300
1535	5.09846	3.2011473	168.2515	7.159109	33.14447
1536	5.09796	3.2012656	168.4062	7.159111	33.14624
1537	5.09732	3.2012967	168.5425	7.159179	33.14717
1538	5.09642	3.2011786	168.6851	7.159359	33.14662
1539	5.09558	3.2012968	168.8363	7.159405	33.14874
1540	5.09508	3.2013591	168.9937	7.159438	33.14987
1541	5.09444	3.2012969	169.1483	7.159557	33.14972
1542	5.09364	3.2013281	169.2905	7.159644	33.15079
1543	5.09210	3.2013903	169.4390	7.159808	33.15296
1544	5.09051	3.2014526	169.5933	7.159978	33.15517
1545	5.08922	3.2014216	169.7478	7.160162	33.15602
1546	5.08738	3.2015709	169.8931	7.160316	33.15949
1547	5.08565	3.2017265	170.0413	7.160455	33.16292
1548	5.08371	3.2018448	170.1870	7.160639	33.16613
1549	5.08202	3.2018759	170.3413	7.160839	33.16808
1550	5.08073	3.2019071	170.4988	7.160989	33.16964
1551	5.07939	3.2019694	170.6469	7.161128	33.17162
1552	5.07840	3.2020627	170.7924	7.161206	33.17360
1553	5.07785	3.2020628	170.9438	7.161279	33.17407
1554	5.07730	3.2021002	171.1013	7.161331	33.17496
1555	5.07651	3.2020940	171.2588	7.161438	33.17560
1556	5.07567	3.2021252	171.4103	7.161532	33.17672
1557	5.07497	3.2021252	171.5618	7.161623	33.17733
1558	5.07438	3.2022123	171.7071	7.161655	33.17885
1559	5.07388	3.2023057	171.8614	7.161670	33.18034
1560	5.07343	3.2025173	172.0188	7.161616	33.18313
1561	5.07318	3.2027973	172.1670	7.161499	33.18652
1562	5.07299	3.2030089	172.3189	7.161413	33.18907
1563	5.07259	3.2031645	172.4641	7.161383	33.19117
1564	5.07219	3.2032827	172.6246	7.161373	33.19284
1565	5.07179	3.2034259	172.7701	7.161349	33.19481
1566	5.07165	3.2035006	172.9213	7.161331	33.19574
1567	5.07130	3.2036188	173.0603	7.161314	33.19737
1568	5.07085	3.2037433	173.2148	7.161307	33.19917
1569	5.07055	3.2038056	173.3664	7.161314	33.20010
1570	5.07021	3.2038617	173.5209	7.161331	33.20101
1571	5.06981	3.2039239	173.6601	7.161351	33.20205
1572	5.06966	3.2040484	173.8056	7.161306	33.20355
1573	5.06956	3.2039551	173.9539	7.161372	33.20251
1574	5.06956	3.2040485	174.0964	7.161325	33.20351
1575	5.06951	3.2041730	174.2447	7.161268	33.20491
1576	5.06956	3.2042290	174.3932	7.161235	33.20543
1577	5.06966	3.2042602	174.5472	7.161209	33.20561
1578	5.06961	3.2042602	174.6899	7.161219	33.20559
1579	5.06966	3.2042914	174.8441	7.161199	33.20582
1580	5.06966	3.2043848	174.9925	7.161152	33.20682
1581	5.06966	3.2043537	175.1501	7.161173	33.20638
1582	5.06966	3.2044160	175.3015	7.161143	33.20702
1583	5.06971	3.2044472	175.4466	7.161123	33.20725
1584	5.06971	3.2045094	175.5950	7.161093	33.20789
1585	5.06976	3.2043539	175.7708	7.161175	33.20597
1586	5.06966	3.2043540	175.9916	7.161193	33.20595
1587	5.06986	3.2043541	176.2521	7.161174	33.20562
1588	5.07021	3.2044537	176.4519	7.161081	33.20632
1589	5.07016	3.2045968	176.6063	7.161013	33.20794
1590	5.07011	3.2047525	176.7333	7.160938	33.20971
1591	5.06991	3.2046903	176.8515	7.161000	33.20913
1592	5.06966	3.2047214	176.9906	7.161018	33.20967
1593	5.06936	3.2046904	177.1423	7.161076	33.20953
1594	5.06946	3.2047215	177.2964	7.161050	33.20971
1595	5.06966	3.2047527	177.4358	7.161011	33.20980
1596	5.06976	3.2048149	177.5844	7.160969	33.21034
1597	5.06971	3.2046906	177.7781	7.161047	33.20886
1598	5.06976	3.2047217	177.9812	7.161029	33.20907
1599	5.06976	3.2047840	178.1567	7.160999	33.20969
1600	5.06971	3.2049085	178.2989	7.160941	33.21110
1601	5.06966	3.2049646	178.4231	7.160920	33.21173
1602	5.06931	3.2049646	178.5625	7.160968	33.21201
1603	5.06916	3.2049024	178.7019	7.161023	33.21137
1604	5.06902	3.2049025	178.8563	7.161046	33.21144
1605	5.06892	3.2049336	179.0076	7.161045	33.21182
1606	5.06892	3.2049959	179.1497	7.161015	33.21246
1607	5.06872	3.2050271	179.2980	7.161026	33.21294
1608	5.06847	3.2050271	179.4558	7.161062	33.21311
1609	5.06827	3.2050272	179.6042	7.161090	33.21323
1610	5.06807	3.2050583	179.7554	7.161102	33.21371
1611	5.06787	3.2050584	179.8976	7.161130	33.21384
1612	5.06753	3.2050398	180.0429	7.161188	33.21389
1613	5.06678	3.2050896	180.1945	7.161258	33.21513
1614	5.06564	3.2050897	180.3397	7.161406	33.21619
1615	5.06445	3.2051831	180.4941	7.161509	33.21837
1616	5.06296	3.2053325	180.6424	7.161620	33.22149
1617	5.06162	3.2053948	180.7881	7.161759	33.22347
1618	5.06063	3.2054571	180.9454	7.161854	33.22509
1619	5.05978	3.2054882	181.0938	7.161947	33.22621
1620	5.05929	3.2055505	181.2513	7.161980	33.22734
1621	5.05894	3.2055817	181.4058	7.162010	33.22797
1622	5.05849	3.2056066	181.5659	7.162057	33.22862
1623	5.05825	3.2057000	181.7235	7.162041	33.22986
1624	5.05800	3.2057188	181.8840	7.162066	33.23024
1625	5.05800	3.2057935	182.0445	7.162030	33.23102
1626	5.05800	3.2058869	182.1989	7.161983	33.23201
1627	5.05790	3.2059741	182.3563	7.161952	33.23303
1628	5.05785	3.2060364	182.5226	7.161928	33.23371
1629	5.05780	3.2060987	182.6862	7.161905	33.23439
1630	5.05800	3.2061609	182.8410	7.161850	33.23483
1631	5.05795	3.2061921	182.9952	7.161843	33.23516
1632	5.05795	3.2062855	183.1556	7.161796	33.23615
1633	5.05790	3.2063105	183.3252	7.161793	33.23640
1634	5.05775	3.2063727	183.4798	7.161782	33.23719
1635	5.05770	3.2065284	183.6433	7.161707	33.23894
1636	5.05755	3.2066218	183.8064	7.161680	33.24008
1637	5.05760	3.2066779	183.9733	7.161647	33.24059
1638	5.05750	3.2067402	184.1305	7.161629	33.24133
1639	5.05745	3.2068025	184.2970	7.161606	33.24201
1640	5.05735	3.2068025	184.4606	7.161622	33.24202
1641	5.05725	3.2068959	184.6299	7.161588	33.24311
1642	5.05715	3.2069271	184.7937	7.161588	33.24348
1643	5.05701	3.2069583	184.9660	7.161594	33.24390
1644	5.05696	3.2070455	185.1356	7.161557	33.24487
1645	5.05691	3.2070767	185.3082	7.161551	33.24519
1646	5.05681	3.2072012	185.4871	7.161500	33.24663
1647	5.05686	3.2072013	185.6566	7.161498	33.24649
1648	5.05681	3.2072324	185.8232	7.161491	33.24681
1649	5.05676	3.2072698	185.9926	7.161481	33.24721
1650	5.05671	3.2072637	186.1619	7.161495	33.24710
1651	5.05666	3.2072637	186.3318	7.161505	33.24706
1652	5.05671	3.2073260	186.5071	7.161469	33.24764
1653	5.05676	3.2073572	186.6765	7.161450	33.24786
1654	5.05661	3.2074133	186.8521	7.161443	33.24857
1655	5.05661	3.2074133	187.0308	7.161447	33.24848
1656	5.05661	3.2075068	187.2094	7.161401	33.24946
1657	5.05671	3.2075691	187.3851	7.161359	33.24999
1658	5.05691	3.2076625	187.5667	7.161287	33.25077
1659	5.05686	3.2077186	187.7422	7.161267	33.25137
1660	5.05691	3.2077497	187.9209	7.161249	33.25159
1661	5.05710	3.2077871	188.0995	7.161208	33.25173
1662	5.05696	3.2077499	188.2753	7.161251	33.25136
1663	5.05710	3.2077810	188.4809	7.161220	33.25147
1664	5.05710	3.2078122	188.6931	7.161208	33.25172
1665	5.05730	3.2078746	188.9288	7.161155	33.25212
1666	5.05740	3.2079057	189.1346	7.161131	33.25227
1667	5.05735	3.2079680	189.3072	7.161107	33.25295
1668	5.05740	3.2079681	189.4676	7.161105	33.25282
1669	5.05725	3.2079370	189.6220	7.161144	33.25253
1670	5.05705	3.2078126	189.8006	7.161241	33.25121
1671	5.05701	3.2077193	189.9763	7.161302	33.25010
1672	5.05701	3.2077504	190.1791	7.161290	33.25035
1673	5.05710	3.2078750	190.3576	7.161214	33.25159
1674	5.05710	3.2079124	190.5332	7.161198	33.25193
1675	5.05725	3.2081490	190.7118	7.161055	33.25441
1676	5.05735	3.2083047	190.8814	7.160963	33.25602
1677	5.05765	3.2085164	191.0721	7.160815	33.25806
1678	5.05795	3.2086410	191.2478	7.160714	33.25910
1679	5.05820	3.2088527	191.4293	7.160572	33.26120
1680	5.05874	3.2090395	191.5959	7.160406	33.26271
1681	5.05924	3.2091641	191.7803	7.160281	33.26356
1682	5.05949	3.2093447	191.9618	7.160156	33.26529
1683	5.05993	3.2095316	192.1348	7.160003	33.26691
1684	5.06048	3.2097122	192.3133	7.159840	33.26835
1685	5.06088	3.2098679	192.4797	7.159710	33.26966
1686	5.06117	3.2099862	192.6491	7.159612	33.27063
1687	5.06157	3.2100174	192.8219	7.159549	33.27051
1688	5.06182	3.2101420	193.0003	7.159455	33.27160
1689	5.06207	3.2102915	193.1730	7.159347	33.27298
1690	5.06246	3.2103850	193.3367	7.159250	33.27358
1691	5.06276	3.2105407	193.5210	7.159133	33.27498
1692	5.06316	3.2107525	193.6935	7.158972	33.27693
1693	5.06346	3.2108148	193.8663	7.158905	33.27726
1694	5.06395	3.2110328	194.0572	7.158729	33.27917
1695	5.06430	3.2111823	194.2386	7.158609	33.28045
1696	5.06465	3.2112446	194.4229	7.158535	33.28073
1697	5.06514	3.2114253	194.5988	7.158379	33.28222
1698	5.06539	3.2114876	194.7773	7.158319	33.28259
1699	5.06564	3.2116122	194.9468	7.158224	33.28369
1700	5.06599	3.2116434	195.1348	7.158168	33.28361
1701	5.06624	3.2117929	195.3130	7.158060	33.28499
1702	5.06663	3.2119238	195.4889	7.157943	33.28601
1703	5.06713	3.2120733	195.6644	7.157804	33.28714
1704	5.06777	3.2123474	195.8428	7.157578	33.28956
1705	5.06857	3.2126215	196.0185	7.157334	33.29182
1706	5.06931	3.2128707	196.2062	7.157110	33.29385
1707	5.07011	3.2130825	196.3817	7.156900	33.29540
1708	5.07075	3.2133006	196.5453	7.156704	33.29718
1709	5.07125	3.2134501	196.7117	7.156565	33.29832
1710	5.07165	3.2136059	196.8780	7.156434	33.29963
1711	5.07214	3.2136683	197.0687	7.156343	33.29975
1712	5.07224	3.2137867	197.2533	7.156271	33.30092
1713	5.07254	3.2138490	197.4170	7.156203	33.30125
1714	5.07269	3.2139425	197.5804	7.156138	33.30210
1715	5.07289	3.2140983	197.7559	7.156033	33.30360
1716	5.07289	3.2141856	197.9257	7.155990	33.30451
1717	5.07309	3.2143102	198.0919	7.155901	33.30566
1718	5.07318	3.2143850	198.2737	7.155852	33.30633
1719	5.07338	3.2144661	198.4461	7.155788	33.30698
1720	5.07353	3.2144973	198.6248	7.155756	33.30710
1721	5.07363	3.2145223	198.7973	7.155734	33.30720
1722	5.07368	3.2145846	198.9549	7.155698	33.30778
1723	5.07368	3.2146781	199.1332	7.155652	33.30877
1724	5.07388	3.2147405	199.3121	7.155598	33.30919
1725	5.07393	3.2147717	199.4934	7.155579	33.30941
1726	5.07398	3.2148029	199.7023	7.155561	33.30961
1727	5.07418	3.2148653	199.9050	7.155507	33.31003
1728	5.07418	3.2148965	200.0804	7.155494	33.31030
1729	5.07428	3.2149214	200.2469	7.155472	33.31040
1730	5.07418	3.2149215	200.3985	7.155488	33.31042
1731	5.07423	3.2149838	200.5620	7.155452	33.31101
1732	5.07418	3.2150462	200.7285	7.155429	33.31169
1733	5.07433	3.2150462	200.9038	7.155414	33.31145
1734	5.07428	3.2150650	201.0827	7.155414	33.31162
1735	5.07428	3.2150464	201.2519	7.155428	33.31132
1736	5.07428	3.2150776	201.4245	7.155416	33.31159
1737	5.07423	3.2151088	201.5882	7.155409	33.31192
1738	5.07443	3.2151711	201.7577	7.155354	33.31235
1739	5.07452	3.2152646	201.9209	7.155295	33.31324
1740	5.07467	3.2153208	202.1027	7.155250	33.31365
1741	5.07467	3.2153208	202.2723	7.155254	33.31356
1742	5.07487	3.2152959	202.4326	7.155247	33.31300
1743	5.07482	3.2153521	202.6147	7.155227	33.31360
1744	5.07492	3.2154144	202.7838	7.155185	33.31413
1745	5.07512	3.2154456	202.9593	7.155147	33.31420
1746	5.07512	3.2154768	203.1137	7.155134	33.31448
1747	5.07522	3.2148040	203.1864	7.155487	33.30662
1748	5.07552	3.2142183	203.1927	7.155767	33.29959
1749	5.07621	3.2141560	203.1445	7.155712	33.29821
1750	5.07686	3.2146793	203.1201	7.155347	33.30358
1751	5.07745	3.2149348	203.1234	7.155134	33.30592
1752	5.07780	3.2150158	203.1508	7.155047	33.30649
1753	5.07770	3.2149223	203.1721	7.155110	33.30551
1754	5.07785	3.2146793	203.1751	7.155223	33.30257
1755	5.07780	3.2146482	203.1574	7.155246	33.30227
1756	5.07810	3.2147105	203.1514	7.155174	33.30269
1757	5.07820	3.2147728	203.1487	7.155128	33.30331
1758	5.07840	3.2148974	203.1726	7.155036	33.30453
1759	5.07835	3.2148662	203.1758	7.155059	33.30422
1760	5.07850	3.2148039	203.1790	7.155074	33.30335
1761	5.07869	3.2147416	203.1824	7.155083	33.30244
1762	5.07869	3.2147416	203.1824	7.155083	33.30244
1763	5.07869	3.2147728	203.1794	7.155066	33.30280
1764	5.07899	3.2146482	203.1581	7.155096	33.30108
1765	5.07949	3.2146793	203.0981	7.155015	33.30097
1766	5.08078	3.2146481	203.0226	7.154868	33.29937
1767	5.08182	3.2146792	202.9468	7.154718	33.29872
1768	5.08237	3.2146418	202.8746	7.154667	33.29779
1769	5.08282	3.2145857	202.7811	7.154639	33.29674
1770	5.08331	3.2145857	202.6692	7.154574	33.29630
1771	5.08386	3.2146168	202.5484	7.154486	33.29618
1772	5.08426	3.2146479	202.4272	7.154416	33.29620
1773	5.08435	3.2146790	202.3066	7.154384	33.29652
1774	5.08455	3.2147101	202.1795	7.154339	33.29675
1775	5.08470	3.2147101	202.0408	7.154317	33.29667
1776	5.08480	3.2147412	201.8864	7.154284	33.29700
1777	5.08495	3.2147411	201.7325	7.154261	33.29693
1778	5.08495	3.2148034	201.5662	7.154224	33.29773
1779	5.08500	3.2148345	201.3939	7.154196	33.29813
1780	5.08485	3.2148656	201.2247	7.154194	33.29872
1781	5.08455	3.2148967	201.0463	7.154211	33.29946
1782	5.08401	3.2149215	200.8680	7.154262	33.30038
1783	5.08316	3.2149215	200.6865	7.154364	33.30132
1784	5.08232	3.2150336	200.5172	7.154405	33.30353
1785	5.08162	3.2151706	200.3391	7.154414	33.30589
1786	5.08103	3.2152640	200.1669	7.154435	33.30764
1787	5.08048	3.2153200	199.9762	7.154469	33.30893
1788	5.08008	3.2153511	199.7825	7.154497	33.30978
1789	5.07969	3.2153511	199.5802	7.154542	33.31028
1790	5.07954	3.2154133	199.3958	7.154523	33.31123
1791	5.07939	3.2154444	199.2144	7.154521	33.31183
1792	5.07919	3.2154444	199.0334	7.154541	33.31212
1793	5.07889	3.2154443	198.8518	7.154574	33.31251
1794	5.07889	3.2154443	198.6612	7.154570	33.31261
1795	5.07865	3.2154442	198.4646	7.154597	33.31295
1796	5.07879	3.2154130	198.2774	7.154590	33.31254
1797	5.07865	3.2154129	198.0868	7.154604	33.31279
1798	5.07860	3.2154440	197.8933	7.154589	33.31329
1799	5.07855	3.2154128	197.7123	7.154608	33.31307
1800	5.07840	3.2153816	197.5215	7.154639	33.31296
1801	5.07835	3.2153878	197.3342	7.154637	33.31318
1802	5.07810	3.2153192	197.1438	7.154701	33.31273
1803	5.07785	3.2153191	196.9500	7.154728	33.31308
1804	5.07765	3.2152630	196.7628	7.154779	33.31273
1805	5.07765	3.2152318	196.5753	7.154791	33.31246
1806	5.07755	3.2152006	196.3822	7.154816	33.31230
1807	5.07730	3.2151694	196.1885	7.154859	33.31229
1808	5.07711	3.2151070	196.0041	7.154914	33.31187
1809	5.07696	3.2150446	195.8227	7.154962	33.31139
1810	5.07666	3.2149823	195.6323	7.155029	33.31107
1811	5.07646	3.2149199	195.4508	7.155083	33.31064
1812	5.07641	3.2148638	195.2693	7.155115	33.31014
1813	5.07631	3.2148326	195.0791	7.155140	33.30998
1814	5.07611	3.2147702	194.8948	7.155194	33.30955
1815	5.07591	3.2147079	194.7042	7.155249	33.30913
1816	5.07606	3.2146455	194.5198	7.155259	33.30836
1817	5.07601	3.2145832	194.3296	7.155295	33.30779
1818	5.07591	3.2145769	194.1513	7.155306	33.30791
1819	5.07582	3.2144335	193.9637	7.155392	33.30646
1820	5.07532	3.2142466	193.7763	7.155551	33.30490
1821	5.07507	3.2141531	193.5824	7.155628	33.30417
1822	5.07462	3.2139724	193.3891	7.155777	33.30264
1823	5.07418	3.2138477	193.2017	7.155897	33.30175
1824	5.07363	3.2137231	193.0023	7.156028	33.30096
1825	5.07313	3.2135735	192.8056	7.156167	33.29984
1826	5.07269	3.2134800	192.6090	7.156269	33.29931
1827	5.07214	3.2132682	192.4034	7.156447	33.29753
1828	5.07155	3.2131435	192.2100	7.156585	33.29679
1829	5.07095	3.2129877	192.0105	7.156740	33.29569
1830	5.07050	3.2128382	191.8081	7.156872	33.29452
1831	5.07001	3.2126201	191.6115	7.157048	33.29261
1832	5.06951	3.2125329	191.4151	7.157153	33.29221
1833	5.06902	3.2124082	191.2124	7.157278	33.29137
1834	5.06867	3.2122774	191.0162	7.157388	33.29032
1835	5.06817	3.2121341	190.8195	7.157524	33.28926
1836	5.06772	3.2119783	190.6198	7.157659	33.28802
1837	5.06723	3.2117914	190.4294	7.157819	33.28647
1838	5.06683	3.2115796	190.2297	7.157978	33.28453
1839	5.06643	3.2114861	190.0364	7.158074	33.28395
1840	5.06609	3.2113678	189.8549	7.158178	33.28303
1841	5.06579	3.2112743	189.6522	7.158261	33.28235
1842	5.06544	3.2112742	189.4376	7.158300	33.28281
1843	5.06524	3.2110002	189.2353	7.158468	33.27996
1844	5.06470	3.2106576	189.0447	7.158718	33.27667
1845	5.06415	3.2106015	188.8635	7.158813	33.27666
1846	5.06365	3.2105703	188.6726	7.158888	33.27689
1847	5.06306	3.2103212	188.4823	7.159093	33.27472
1848	5.06246	3.2100783	188.2919	7.159295	33.27262
1849	5.06197	3.2098665	188.1105	7.159468	33.27077
1850	5.06152	3.2097419	187.9201	7.159587	33.26988
1851	5.06127	3.2097730	187.7296	7.159597	33.27059
1852	5.06083	3.2097418	187.5295	7.159666	33.27077
1853	5.06063	3.2095301	187.3487	7.159801	33.26863
1854	5.06013	3.2092498	187.1643	7.160011	33.26600
1855	5.05993	3.2091626	186.9769	7.160079	33.26529
1856	5.05973	3.2090692	186.7953	7.160150	33.26451
1857	5.05954	3.2090069	186.6051	7.160204	33.26408
1858	5.05929	3.2089445	186.4145	7.160265	33.26371
1859	5.05914	3.2088822	186.2299	7.160313	33.26324
1860	5.05899	3.2088199	186.0427	7.160361	33.26277
1861	5.05904	3.2087327	185.8583	7.160397	33.26181
1862	5.05894	3.2085583	185.6799	7.160500	33.26000
1863	5.05869	3.2084836	185.4863	7.160567	33.25948
1864	5.05854	3.2084275	185.2931	7.160612	33.25908
1865	5.05854	3.2083652	185.1112	7.160641	33.25846
1866	5.05849	3.2082717	184.9211	7.160694	33.25753
1867	5.05835	3.2082717	184.7365	7.160708	33.25777
1868	5.05835	3.2082716	184.5458	7.160703	33.25787
1869	5.05835	3.2082093	184.3525	7.160733	33.25725
1870	5.05835	3.2081781	184.1621	7.160745	33.25699
1871	5.05830	3.2081469	183.9714	7.160763	33.25678
1872	5.05805	3.2081157	183.7811	7.160807	33.25677
1873	5.05820	3.2081157	183.5968	7.160784	33.25671
1874	5.05805	3.2081156	183.4059	7.160798	33.25695
1875	5.05825	3.2081405	183.2155	7.160755	33.25714
1876	5.05820	3.2081466	183.0221	7.160753	33.25736
1877	5.05820	3.2080843	182.8286	7.160782	33.25674
1878	5.05805	3.2080282	182.6380	7.160827	33.25634
1879	5.05805	3.2079659	182.4508	7.160856	33.25572
1880	5.05815	3.2078725	182.2570	7.160890	33.25465
1881	5.05805	3.2078102	182.0665	7.160931	33.25413
1882	5.05815	3.2077790	181.8730	7.160931	33.25377
1883	5.05815	3.2077478	181.6823	7.160944	33.25351
1884	5.05820	3.2077789	181.4892	7.160916	33.25391
1885	5.05815	3.2076917	181.3015	7.160965	33.25305
1886	5.05815	3.2076293	181.1023	7.160994	33.25244
1887	5.05815	3.2075670	180.9116	7.161023	33.25182
1888	5.05815	3.2074923	180.7028	7.161058	33.25107
1889	5.05820	3.2074424	180.4975	7.161074	33.25055
1890	5.05820	3.2073801	180.2947	7.161103	33.24994
1891	5.05815	3.2073240	180.0981	7.161135	33.24944
1892	5.05805	3.2072617	179.8925	7.161176	33.24893
1893	5.05810	3.2071372	179.6896	7.161233	33.24755
1894	5.05805	3.2071060	179.4873	7.161251	33.24735
1895	5.05810	3.2070437	179.2909	7.161274	33.24668
1896	5.05815	3.2070125	179.0851	7.161280	33.24638
1897	5.05810	3.2070435	178.8583	7.161264	33.24690
1898	5.05820	3.2069252	178.6316	7.161310	33.24556
1899	5.05810	3.2065579	178.4232	7.161516	33.24154
1900	5.05825	3.2063711	178.2204	7.161594	33.23935
1901	5.05899	3.2063275	178.0329	7.161519	33.23820
1902	5.05988	3.2063399	177.8333	7.161395	33.23756
1903	5.06058	3.2063709	177.6278	7.161285	33.23733
1904	5.06102	3.2063397	177.4221	7.161241	33.23663
1905	5.06142	3.2068625	177.1923	7.160902	33.24236
1906	5.06167	3.2072608	176.9169	7.160649	33.24683
1907	5.06167	3.2064328	176.6387	7.161090	33.23745
1908	5.06187	3.2057295	176.4149	7.161441	33.22929
1909	5.06271	3.2055489	176.2183	7.161428	33.22648
1910	5.06395	3.2054555	176.0188	7.161317	33.22427
1911	5.06495	3.2054243	175.8133	7.161204	33.22303
1912	5.06554	3.2054554	175.5953	7.161107	33.22290
1913	5.06609	3.2053619	175.3897	7.161083	33.22139
1914	5.06663	3.2052996	175.1753	7.161043	33.22024
1915	5.06703	3.2052373	174.9726	7.161022	33.21923
1916	5.06768	3.2052124	174.7610	7.160949	33.21841
1917	5.06807	3.2051501	174.5522	7.160928	33.21741
1918	5.06832	3.2051189	174.3435	7.160908	33.21691
1919	5.06862	3.2051188	174.1320	7.160866	33.21672
1920	5.06887	3.2050876	173.9202	7.160846	33.21622
1921	5.06897	3.2050253	173.7238	7.160863	33.21551
1922	5.06892	3.2049942	173.5089	7.160881	33.21531
1923	5.06911	3.2049941	173.3033	7.160851	33.21522
1924	5.06906	3.2049629	173.0917	7.160869	33.21501
1925	5.06902	3.2049068	172.8861	7.160900	33.21452
1926	5.06906	3.2048757	172.6746	7.160906	33.21422
1927	5.06911	3.2048445	172.4716	7.160912	33.21392
1928	5.06911	3.2048133	172.2601	7.160923	33.21367
1929	5.06921	3.2048132	172.0515	7.160906	33.21368
1930	5.06916	3.2048132	171.8397	7.160907	33.21383
1931	5.06916	3.2047509	171.6339	7.160936	33.21322
1932	5.06897	3.2046886	171.4258	7.160990	33.21281
1933	5.06892	3.2046574	171.2136	7.161008	33.21261
1934	5.06892	3.2046262	171.0140	7.161020	33.21235
1935	5.06882	3.2045640	170.8026	7.161061	33.21184
1936	5.06877	3.2045390	170.5907	7.161076	33.21171
1937	5.06867	3.2045203	170.3760	7.161093	33.21170
1938	5.06862	3.2044455	170.1701	7.161135	33.21100
1939	5.06852	3.2043832	169.9646	7.161177	33.21049
1940	5.06862	3.2043521	169.7529	7.161176	33.21014
1941	5.06862	3.2043209	169.5472	7.161188	33.20989
1942	5.06857	3.2042897	169.3421	7.161206	33.20968
1943	5.06862	3.2042025	169.1328	7.161242	33.20874
1944	5.06867	3.2041714	168.9364	7.161248	33.20843
1945	5.06897	3.2041091	168.7429	7.161239	33.20752
1946	5.06921	3.2041090	168.5404	7.161203	33.20737
1947	5.06961	3.2043827	168.3288	7.161000	33.21023
1948	5.06981	3.2041649	168.1140	7.161088	33.20764
1949	5.07006	3.2040155	167.9172	7.161132	33.20577
1950	5.07021	3.2039221	167.7208	7.161160	33.20465
1951	5.07050	3.2038909	167.5304	7.161134	33.20410
1952	5.07055	3.2038597	167.3309	7.161140	33.20379
1953	5.07050	3.2038908	167.1341	7.161125	33.20430
1954	5.07075	3.2038596	166.9375	7.161106	33.20379
1955	5.07085	3.2039529	166.7352	7.161038	33.20487
1956	5.07100	3.2040150	166.5234	7.160980	33.20554
1957	5.07095	3.2040772	166.3237	7.160948	33.20641
1958	5.07115	3.2042576	166.1211	7.160821	33.20838
1959	5.07110	3.2044753	165.9213	7.160704	33.21103
1960	5.07095	3.2047428	165.7159	7.160573	33.21436
1961	5.07095	3.2051472	165.5103	7.160349	33.21911
1962	5.07090	3.2055766	165.3102	7.160118	33.22419
1963	5.07070	3.2059375	165.1021	7.159943	33.22864
1964	5.07036	3.2061864	164.8904	7.159847	33.23195
1965	5.07021	3.2062174	164.6937	7.159844	33.23256
1966	5.07006	3.2062485	164.4847	7.159841	33.23317
1967	5.06991	3.2062173	164.2851	7.159872	33.23306
1968	5.06996	3.2062173	164.0795	7.159861	33.23312
1969	5.07016	3.2062172	163.8770	7.159831	33.23302
1970	5.07040	3.2061549	163.6684	7.159828	33.23216
1971	5.07060	3.2061237	163.4625	7.159815	33.23171
1972	5.07070	3.2059992	163.2660	7.159865	33.23028
1973	5.07095	3.2060302	163.0601	7.159812	33.23050
1974	5.07100	3.2059368	162.8517	7.159852	33.22948
1975	5.07105	3.2059367	162.6490	7.159841	33.22954
1976	5.07115	3.2059678	162.4496	7.159806	33.22989
1977	5.07105	3.2060611	162.2467	7.159764	33.23117
1978	5.07095	3.2059677	162.0473	7.159822	33.23030
1979	5.07095	3.2059676	161.8476	7.159817	33.23040
1980	5.07090	3.2059115	161.6449	7.159849	33.22990
1981	5.07085	3.2059115	161.4483	7.159850	33.23005
1982	5.07085	3.2058492	161.2367	7.159879	33.22945
1983	5.07070	3.2057558	161.0369	7.159944	33.22862
1984	5.07065	3.2057744	160.8313	7.159935	33.22899
1985	5.07050	3.2057556	160.6288	7.159959	33.22903
1986	5.07045	3.2057245	160.4260	7.159977	33.22882
1987	5.07031	3.2056622	160.2325	7.160025	33.22835
1988	5.07011	3.2056310	160.0176	7.160062	33.22830
1989	5.07001	3.2055998	159.8182	7.160087	33.22814
1990	5.07011	3.2055997	159.6156	7.160069	33.22815
1991	5.07006	3.2056308	159.4038	7.160054	33.22866
1992	5.07006	3.2056930	159.2042	7.160015	33.22948
1993	5.07006	3.2056618	158.9984	7.160027	33.22922
1994	5.06996	3.2056617	158.7926	7.160035	33.22943
1995	5.06986	3.2055994	158.5902	7.160076	33.22891
1996	5.06976	3.2055807	158.3904	7.160094	33.22890
1997	5.06986	3.2056304	158.1789	7.160049	33.22948
1998	5.06991	3.2057237	157.9671	7.159988	33.23061
1999	5.06986	3.2057547	157.7462	7.159972	33.23113
2000	5.06976	3.2058169	157.5560	7.159946	33.23204
2001	5.06981	3.2056924	157.3532	7.160002	33.23066
2002	5.06991	3.2057234	157.1534	7.159968	33.23102
2003	5.06986	3.2056923	156.9478	7.159986	33.23081
2004	5.06991	3.2056922	156.7452	7.159975	33.23087
2005	5.07001	3.2056921	156.5489	7.159958	33.23087
2006	5.06981	3.2056298	156.3430	7.160012	33.23045
2007	5.06991	3.2055738	156.1341	7.160025	33.22982
2008	5.06976	3.2055488	155.9376	7.160052	33.22978
2009	5.06961	3.2055736	155.7381	7.160053	33.23031
2010	5.06941	3.2055425	155.5353	7.160090	33.23026
2011	5.06936	3.2055424	155.3297	7.160091	33.23041
2012	5.06936	3.2055735	155.1240	7.160070	33.23087
2013	5.06931	3.2055983	154.9183	7.160057	33.23131
2014	5.06906	3.2055982	154.7095	7.160084	33.23166
2015	5.06892	3.2055982	154.5160	7.160098	33.23191
2016	5.06862	3.2056292	154.3043	7.160114	33.23267
2017	5.06842	3.2055981	154.1107	7.160151	33.23261
2018	5.06837	3.2055980	153.8991	7.160152	33.23277
2019	5.06822	3.2056290	153.6934	7.160149	33.23338
2020	5.06822	3.2057535	153.4939	7.160077	33.23491
2021	5.06822	3.2058032	153.2850	7.160045	33.23558
2022	5.06807	3.2058156	153.0822	7.160052	33.23598
2023	5.06792	3.2058466	152.8888	7.160049	33.23658
2024	5.06758	3.2059648	152.6858	7.160024	33.23839
2025	5.06738	3.2060270	152.4836	7.160011	33.23940
2026	5.06723	3.2061203	152.2839	7.159974	33.24073
2027	5.06738	3.2061825	152.0783	7.159917	33.24140
2028	5.06728	3.2062758	151.8786	7.159874	33.24267
2029	5.06713	3.2063939	151.6789	7.159824	33.24428
2030	5.06688	3.2065184	151.4788	7.159783	33.24606
2031	5.06683	3.2066117	151.2824	7.159734	33.24728
2032	5.06653	3.2066676	151.0645	7.159736	33.24833
2033	5.06619	3.2067423	150.8621	7.159735	33.24964
2034	5.06589	3.2067920	150.6625	7.159740	33.25061
2035	5.06569	3.2068231	150.4597	7.159744	33.25126
2036	5.06574	3.2068541	150.2541	7.159716	33.25168
2037	5.06579	3.2069163	150.0514	7.159671	33.25244
2038	5.06564	3.2069162	149.8427	7.159685	33.25270
2039	5.06549	3.2069162	149.6403	7.159699	33.25295
2040	5.06544	3.2070032	149.4346	7.159653	33.25410
2041	5.06539	3.2070032	149.2255	7.159654	33.25426
2042	5.06539	3.2070342	149.0232	7.159632	33.25472
2043	5.06554	3.2070653	148.8203	7.159592	33.25503
2044	5.06554	3.2070964	148.6085	7.159570	33.25550
2045	5.06554	3.2071274	148.4090	7.159548	33.25596
2046	5.06554	3.2071896	148.1972	7.159510	33.25678
2047	5.06554	3.2071895	147.9944	7.159505	33.25688
2048	5.06554	3.2072206	147.7828	7.159483	33.25735
2049	5.06549	3.2072517	147.5680	7.159467	33.25786
2050	5.06559	3.2072516	147.3627	7.159450	33.25787
2051	5.06559	3.2073138	147.1659	7.159411	33.25868
2052	5.06549	3.2073697	146.9571	7.159389	33.25953
2053	5.06574	3.2074008	146.7482	7.159335	33.25975
2054	5.06604	3.2074007	146.5489	7.159293	33.25955
2055	5.06629	3.2074007	146.3338	7.159257	33.25941
2056	5.06648	3.2073695	146.1253	7.159244	33.25896
2057	5.06683	3.2073694	145.9255	7.159195	33.25872
2058	5.06728	3.2073507	145.7258	7.159144	33.25816
2059	5.06768	3.2072510	145.5233	7.159143	33.25672
2060	5.06832	3.2071264	145.3054	7.159124	33.25476
2061	5.06906	3.2070330	145.1028	7.159076	33.25305
2062	5.06976	3.2070018	144.9002	7.159000	33.25210
2063	5.07070	3.2069768	144.6943	7.158890	33.25098
2064	5.07165	3.2069145	144.4886	7.158800	33.24943
2065	5.07269	3.2067900	144.2861	7.158731	33.24706
2066	5.07368	3.2066965	144.0801	7.158652	33.24510
2067	5.07457	3.2066342	143.8744	7.158568	33.24360
2068	5.07557	3.2064847	143.6658	7.158519	33.24100
2069	5.07636	3.2063291	143.4694	7.158498	33.23852
2070	5.07726	3.2062730	143.2605	7.158411	33.23709
2071	5.07815	3.2063165	143.0519	7.158270	33.23681
2072	5.07909	3.2062417	142.8523	7.158186	33.23511
2073	5.08018	3.2060549	142.6464	7.158145	33.23199
2074	5.08133	3.2058433	142.4436	7.158111	33.22852
2075	5.08296	3.2056254	142.2380	7.158017	33.22449
2076	5.08465	3.2054759	142.0352	7.157880	33.22120
2077	5.08659	3.2052891	141.8358	7.157733	33.21723
2078	5.08838	3.2050464	141.6270	7.157634	33.21277
2079	5.09031	3.2050152	141.4153	7.157401	33.21059
2080	5.09225	3.2049528	141.2126	7.157186	33.20805
2081	5.09389	3.2048034	141.0129	7.157056	33.20481
2082	5.09538	3.2048033	140.8041	7.156863	33.20343
2083	5.09712	3.2047037	140.5922	7.156693	33.20067
2084	5.09876	3.2044983	140.3926	7.156592	33.19678
2085	5.10035	3.2044359	140.1841	7.156421	33.19459
2086	5.10203	3.2042803	139.9752	7.156287	33.19123
2087	5.10338	3.2040687	139.7786	7.156228	33.18757
2088	5.10457	3.2040064	139.5668	7.156106	33.18578
2089	5.10616	3.2040063	139.3612	7.155901	33.18430
2090	5.10760	3.2040373	139.1494	7.155697	33.18334
2091	5.10909	3.2038817	138.9436	7.155589	33.18017
2092	5.11053	3.2037323	138.7471	7.155483	33.17713
2093	5.11182	3.2034273	138.5352	7.155480	33.17245
2094	5.11316	3.2032530	138.3325	7.155400	33.16922
2095	5.11450	3.2031223	138.1298	7.155297	33.16649
2096	5.11634	3.2030289	137.9212	7.155111	33.16370
2097	5.11813	3.2029355	137.7095	7.154931	33.16096
2098	5.11982	3.2025684	137.4855	7.154911	33.15519
2099	5.12171	3.2025372	137.2708	7.154685	33.15307
2100	5.12335	3.2028170	137.0650	7.154322	33.15475
2101	5.12419	3.2018652	136.8623	7.154725	33.14310
2102	5.12459	3.2014421	136.6565	7.154898	33.13796
2103	5.12549	3.2017157	136.4475	7.154632	33.14031
2104	5.12742	3.2014419	136.2363	7.154531	33.13536
2105	5.12897	3.2014419	136.0303	7.154332	33.13393
2106	5.13031	3.2013174	135.8186	7.154225	33.13128
2107	5.13140	3.2012862	135.6159	7.154099	33.12994
2108	5.13269	3.2011928	135.4071	7.153982	33.12770
2109	5.13369	3.2010746	135.1954	7.153915	33.12546
2110	5.13468	3.2009501	134.9895	7.153852	33.12315
2111	5.13533	3.2008318	134.7871	7.153830	33.12126
2112	5.13573	3.2007074	134.5842	7.153842	33.11954
2113	5.13637	3.2006140	134.3846	7.153806	33.11793
2114	5.13732	3.2004336	134.1850	7.153780	33.11503
2115	5.13841	3.2005517	133.9759	7.153573	33.11540
2116	5.14010	3.2004459	133.7645	7.153412	33.11262
2117	5.14159	3.2001286	133.5616	7.153390	33.10761
2118	5.14298	3.2002156	133.3592	7.153163	33.10733
2119	5.14457	3.2004021	133.1566	7.152857	33.10800
2120	5.14547	3.1998236	132.9504	7.153051	33.10058
2121	5.14607	3.1994566	132.7417	7.153169	33.09589
2122	5.14676	3.1996058	132.5240	7.152996	33.09702
2123	5.14865	3.1996679	132.3241	7.152719	33.09596
2124	5.15064	3.1993942	132.1185	7.152611	33.09096
2125	5.15178	3.1994874	131.9189	7.152412	33.09100
2126	5.15273	3.1994438	131.6981	7.152311	33.08967
2127	5.15333	3.1991204	131.4984	7.152406	33.08548
2128	5.15387	3.1991203	131.2925	7.152332	33.08504
2129	5.15457	3.1988155	131.0870	7.152404	33.08096
2130	5.15492	3.1982620	130.8843	7.152654	33.07438
2131	5.15502	3.1982620	130.6723	7.152636	33.07439
2132	5.15551	3.1982370	130.4637	7.152582	33.07371
2133	5.15631	3.1979572	130.2670	7.152628	33.06982
2134	5.15671	3.1977768	130.0611	7.152670	33.06746
2135	5.15745	3.1977145	129.8617	7.152605	33.06611
2136	5.15865	3.1976398	129.6588	7.152490	33.06418
2137	5.15954	3.1978387	129.4622	7.152265	33.06567
2138	5.16044	3.1976521	129.2656	7.152248	33.06275
2139	5.16123	3.1976832	129.0627	7.152126	33.06242
2140	5.16213	3.1979007	128.8662	7.151891	33.06413
2141	5.16258	3.1973162	128.6633	7.152145	33.05709
2142	5.16332	3.1971047	128.4638	7.152160	33.05403
2143	5.16447	3.1972912	128.2552	7.151910	33.05514
2144	5.16546	3.1970113	128.0465	7.151931	33.05106
2145	5.16646	3.1969864	127.8497	7.151814	33.04989
2146	5.16750	3.1970298	127.6199	7.151654	33.04947
2147	5.16835	3.1963459	127.4020	7.151910	33.04091
2148	5.16944	3.1962526	127.1901	7.151818	33.03887
2149	5.16989	3.1971353	126.9900	7.151281	33.04863
2150	5.17029	3.1961592	126.7875	7.151752	33.03716
2151	5.16994	3.1954878	126.5788	7.152153	33.02992
2152	5.16989	3.1958234	126.3794	7.151973	33.03392
2153	5.17163	3.1957052	126.1734	7.151812	33.03095
2154	5.17322	3.1953695	125.9650	7.151788	33.02564
2155	5.17432	3.1954875	125.7532	7.151581	33.02601
2156	5.17506	3.1955496	125.5503	7.151449	33.02609
2157	5.17551	3.1950958	125.3415	7.151632	33.02056
2158	5.17576	3.1949403	125.1297	7.151679	33.01864
2159	5.17621	3.1949092	124.9302	7.151635	33.01794
2160	5.17691	3.1949091	124.7181	7.151542	33.01736
2161	5.17750	3.1949090	124.5215	7.151462	33.01687
2162	5.17840	3.1946976	124.3218	7.151458	33.01366
2163	5.17984	3.1945733	124.1130	7.151338	33.01092
2164	5.18148	3.1945856	123.9073	7.151119	33.00954
2165	5.18288	3.1942996	123.7135	7.151093	33.00499
2166	5.18407	3.1941193	123.5047	7.151035	33.00185
2167	5.18551	3.1940882	123.3021	7.150865	33.00018
2168	5.18711	3.1938147	123.0933	7.150806	32.99558
2169	5.18825	3.1937524	122.8876	7.150690	32.99384
2170	5.18950	3.1937213	122.6819	7.150545	32.99236
2171	5.19029	3.1935410	122.4670	7.150537	32.98962
2172	5.19094	3.1931743	122.2704	7.150648	32.98488
2173	5.19189	3.1931680	122.0588	7.150527	32.98399
2174	5.19273	3.1929629	121.8470	7.150526	32.98091
2175	5.19368	3.1930498	121.6412	7.150355	32.98108
2176	5.19447	3.1925340	121.4349	7.150527	32.97449
2177	5.19522	3.1921983	121.2324	7.150609	32.97002
2178	5.19592	3.1921113	121.0268	7.150563	32.96844
2179	5.19686	3.1919559	120.8090	7.150522	32.96584
2180	5.19766	3.1918067	120.6182	7.150497	32.96344
2181	5.19856	3.1915333	120.4184	7.150527	32.95953
2182	5.19960	3.1912101	120.2039	7.150564	32.95491
2183	5.20090	3.1910423	120.0010	7.150486	32.95182
2184	5.20239	3.1910733	119.7892	7.150276	32.95081
2185	5.20358	3.1908930	119.5897	7.150217	32.94767
2186	5.20458	3.1907066	119.3868	7.150187	32.94466
2187	5.20568	3.1903462	119.1813	7.150238	32.93956
2188	5.20702	3.1900977	118.9753	7.150197	32.93550
2189	5.20816	3.1900976	118.7785	7.150048	32.93447
2190	5.20941	3.1895385	118.5728	7.150187	32.92695
2191	5.21080	3.1892216	118.3612	7.150177	32.92206
2192	5.21210	3.1890973	118.1525	7.150075	32.91947
2193	5.21329	3.1886128	117.9466	7.150180	32.91286
2194	5.21459	3.1884574	117.7407	7.150095	32.90991
2195	5.21593	3.1886437	117.5258	7.149820	32.91083
2196	5.21728	3.1881219	117.3138	7.149926	32.90365
2197	5.21902	3.1883951	117.1115	7.149555	32.90516
2198	5.22032	3.1883205	116.8994	7.149426	32.90314
2199	5.22086	3.1873019	116.6969	7.149900	32.89106
2200	5.22131	3.1873640	116.4943	7.149805	32.89143
2201	5.22291	3.1875750	116.2823	7.149486	32.89238
2202	5.22480	3.1870595	116.0795	7.149519	32.88473
2203	5.22619	3.1867862	115.8737	7.149485	32.88034
2204	5.22709	3.1869104	115.6682	7.149300	32.88098
2205	5.22789	3.1865750	115.4621	7.149375	32.87646
2206	5.22868	3.1861713	115.2503	7.149486	32.87117
2207	5.22978	3.1861775	115.0599	7.149340	32.87026
2208	5.23078	3.1859352	114.8512	7.149340	32.86662
2209	5.23177	3.1857862	114.6484	7.149289	32.86404
2210	5.23287	3.1854819	114.4396	7.149309	32.85959
2211	5.23392	3.1853887	114.2303	7.149223	32.85761
2212	5.23476	3.1853265	114.0311	7.149144	32.85616
2213	5.23601	3.1851464	113.8253	7.149079	32.85299
2214	5.23706	3.1847925	113.6194	7.149132	32.84802
2215	5.23790	3.1846620	113.4109	7.149090	32.84580
2216	5.23890	3.1848109	113.2018	7.148880	32.84663
2217	5.24014	3.1844198	112.9960	7.148928	32.84104
2218	5.24154	3.1842955	112.7992	7.148814	32.83835
2219	5.24234	3.1842644	112.5907	7.148725	32.83732
2220	5.24338	3.1840533	112.3908	7.148701	32.83398
2221	5.24433	3.1838670	112.1914	7.148677	32.83103
2222	5.24533	3.1837800	111.9822	7.148593	32.82916
2223	5.24598	3.1835069	111.7797	7.148653	32.82551
2224	5.24757	3.1834137	111.5709	7.148497	32.82298
2225	5.24902	3.1832646	111.3678	7.148390	32.81996
2226	5.25086	3.1830535	111.1655	7.148266	32.81585
2227	5.25260	3.1827493	110.9534	7.148204	32.81077
2228	5.25330	3.1826251	110.7506	7.148177	32.80877
2229	5.25345	3.1825816	110.5389	7.148177	32.80823
2230	5.25430	3.1823519	110.3362	7.148188	32.80488
2231	5.25530	3.1822339	110.1425	7.148121	32.80265
2232	5.25644	3.1822339	109.9397	7.147972	32.80163
2233	5.25744	3.1819918	109.7338	7.147971	32.79799
2234	5.25824	3.1820227	109.5314	7.147849	32.79767
2235	5.25923	3.1819295	109.3223	7.147768	32.79573
2236	5.26033	3.1817495	109.1197	7.147721	32.79270
2237	5.26113	3.1817494	108.9201	7.147616	32.79202
2238	5.26228	3.1816873	108.7144	7.147500	32.79029
2239	5.26297	3.1813832	108.5055	7.147570	32.78624
2240	5.26352	3.1812900	108.3085	7.147546	32.78474
2241	5.26427	3.1814451	108.1029	7.147364	32.78588
2242	5.26517	3.1813519	107.8972	7.147295	32.78404
2243	5.26567	3.1810168	107.6914	7.147407	32.77983
2244	5.26651	3.1811098	107.4764	7.147245	32.78017
2245	5.26766	3.1807498	107.2676	7.147289	32.77504
2246	5.26876	3.1809917	107.0648	7.147016	32.77683
2247	5.27000	3.1809606	106.8622	7.146870	32.77536
2248	5.27045	3.1804145	106.6623	7.147102	32.76879
2249	5.27150	3.1803834	106.4537	7.146981	32.76751
2250	5.27310	3.1805695	106.2510	7.146675	32.76818
2251	5.27484	3.1805942	106.0512	7.146437	32.76685
2252	5.27634	3.1804453	105.8392	7.146323	32.76379
2253	5.27803	3.1804142	105.6396	7.146121	32.76188
2254	5.28018	3.1805009	105.4339	7.145799	32.76087
2255	5.28212	3.1802589	105.2403	7.145679	32.75630
2256	5.28382	3.1802340	105.0312	7.145473	32.75447
2257	5.28512	3.1802463	104.8315	7.145298	32.75344
2258	5.28661	3.1801097	104.6317	7.145178	32.75052
2259	5.28801	3.1802586	104.4320	7.144917	32.75095
2260	5.28921	3.1800165	104.2202	7.144890	32.74712
2261	5.29080	3.1798675	104.0175	7.144764	32.74397
2262	5.29210	3.1800474	103.8178	7.144499	32.74485
2263	5.29295	3.1798302	103.6181	7.144504	32.74164
2264	5.29355	3.1793524	103.4091	7.144679	32.73571
2265	5.29439	3.1795012	103.2126	7.144488	32.73668
2266	5.29579	3.1795011	103.0006	7.144307	32.73542
2267	5.29694	3.1791412	102.8038	7.144350	32.73029
2268	5.29799	3.1790481	102.5982	7.144263	32.72831
2269	5.29904	3.1791101	102.4047	7.144093	32.72809
2270	5.29998	3.1786758	102.2016	7.144201	32.72231
2271	5.30068	3.1784710	101.9900	7.144217	32.71940
2272	5.30158	3.1785329	101.7993	7.144066	32.71932
2273	5.30218	3.1783220	101.6023	7.144099	32.71643
2274	5.30248	3.1781730	101.3997	7.144136	32.71454
2275	5.30313	3.1780489	101.2028	7.144116	32.71259
2276	5.30363	3.1778690	101.0063	7.144145	32.71015
2277	5.30452	3.1778441	100.7945	7.144040	32.70910
2278	5.30517	3.1777448	100.6008	7.144007	32.70743
2279	5.30562	3.1774408	100.3948	7.144108	32.70363
2280	5.30642	3.1773849	100.1950	7.144032	32.70231
2281	5.30727	3.1773228	99.9986	7.143954	32.70087
2282	5.30802	3.1771118	99.7961	7.143967	32.69784
2283	5.30882	3.1769505	99.5901	7.143948	32.69533
2284	5.30971	3.1768078	99.3933	7.143906	32.69292
2285	5.31061	3.1767147	99.1785	7.143838	32.69109
2286	5.31166	3.1767766	98.9818	7.143668	32.69087
2287	5.31286	3.1766277	98.7849	7.143592	32.68810
2288	5.31381	3.1763858	98.5820	7.143597	32.68452
2289	5.31501	3.1763857	98.3796	7.143441	32.68345
2290	5.31610	3.1760569	98.1767	7.143473	32.67874
2291	5.31765	3.1758398	97.9738	7.143389	32.67486
2292	5.31970	3.1759018	97.7650	7.143093	32.67367
2293	5.32120	3.1757156	97.5653	7.142999	32.67019
2294	5.32249	3.1753559	97.3596	7.143022	32.66493
2295	5.32479	3.1755356	97.1506	7.142631	32.66484
2296	5.32689	3.1753557	96.9506	7.142458	32.66085
2297	5.32889	3.1745992	96.7483	7.142606	32.65038
2298	5.33068	3.1744441	96.5512	7.142457	32.64696
2299	5.33308	3.1745990	96.3486	7.142067	32.64649
2300	5.33563	3.1743571	96.1429	7.141870	32.64136
2301	5.33807	3.1743260	95.9431	7.141573	32.63872
2302	5.34102	3.1743879	95.7433	7.141163	32.63666
2303	5.34377	3.1740158	95.5407	7.141011	32.62985
2304	5.34622	3.1737182	95.3410	7.140856	32.62418
2305	5.34836	3.1734515	95.1349	7.140722	32.61915
2306	5.35031	3.1730547	94.9382	7.140684	32.61284
2307	5.35221	3.1729368	94.7324	7.140502	32.60975
2308	5.35451	3.1724222	94.5356	7.140482	32.60176
2309	5.35641	3.1721928	94.3299	7.140360	32.59740
2310	5.35826	3.1720873	94.1302	7.140179	32.59450
2311	5.36016	3.1716348	93.9242	7.140176	32.58761
2312	5.36155	3.1710025	93.7246	7.140332	32.57916
2313	5.36250	3.1704261	93.5251	7.140515	32.57177
2314	5.36355	3.1699117	93.3281	7.140653	32.56500
2315	5.36355	3.1697071	93.1194	7.140757	32.56278
2316	5.36340	3.1693414	92.9196	7.140966	32.55886
2317	5.36320	3.1687342	92.7136	7.141311	32.55225
2318	5.36290	3.1683128	92.5139	7.141569	32.54785
2319	5.36245	3.1678914	92.3021	7.141846	32.54360
2320	5.36195	3.1673772	92.0992	7.142179	32.53833
2321	5.36165	3.1670302	91.8996	7.142397	32.53477
2322	5.36165	3.1664169	91.6967	7.142720	32.52790
2323	5.36115	3.1655683	91.4937	7.143231	32.51883
2324	5.36050	3.1651471	91.2943	7.143533	32.51477
2325	5.35971	3.1649055	91.0946	7.143759	32.51289
2326	5.35921	3.1640384	90.8916	7.144280	32.50362
2327	5.35881	3.1633387	90.6860	7.144700	32.49615
2328	5.35871	3.1630104	90.4862	7.144883	32.49261
2329	5.35901	3.1625894	90.2802	7.145065	32.48763
2330	5.35926	3.1620754	90.0838	7.145303	32.48164
2331	5.35886	3.1618773	89.8838	7.145455	32.47987
2332	5.35881	3.1615615	89.6779	7.145625	32.47643
2333	5.35911	3.1611714	89.4631	7.145790	32.47181
2334	5.36011	3.1610537	89.2631	7.145722	32.46960
2335	5.36130	3.1608432	89.0724	7.145678	32.46614
2336	5.36215	3.1605398	88.8700	7.145728	32.46197
2337	5.36340	3.1604469	88.6669	7.145615	32.45980
2338	5.36490	3.1601807	88.4671	7.145563	32.45543
2339	5.36680	3.1600011	88.2673	7.145413	32.45164
2340	5.36895	3.1598463	88.0708	7.145219	32.44790
2341	5.37120	3.1599700	87.8710	7.144864	32.44723
2342	5.37370	3.1597842	87.6501	7.144642	32.44281
2343	5.37655	3.1591281	87.4138	7.144626	32.43271
2344	5.38050	3.1592765	87.2079	7.144042	32.43068
2345	5.38255	3.1608114	87.0207	7.142960	32.44624
2346	5.37915	3.1572900	86.8176	7.145264	32.40960
2347	5.37455	3.1573085	86.6178	7.145831	32.41436
2348	5.37745	3.1579210	86.4242	7.145133	32.41861
2349	5.38295	3.1580756	86.2244	7.144350	32.41515
2350	5.38815	3.1575310	86.0124	7.143977	32.40404
2351	5.39270	3.1573824	85.8159	7.143476	32.39806
2352	5.39660	3.1575617	85.6189	7.142882	32.39642
2353	5.40015	3.1571718	85.4101	7.142636	32.38867
2354	5.40365	3.1573202	85.2134	7.142109	32.38707
2355	5.40765	3.1577718	85.0137	7.141358	32.38844
2356	5.41075	3.1570478	84.8143	7.141346	32.37732
2357	5.41366	3.1568311	84.6080	7.141090	32.37216
2358	5.41681	3.1568991	84.4084	7.140650	32.36999
2359	5.42001	3.1568680	84.2055	7.140257	32.36665
2360	5.42311	3.1566019	83.9999	7.140001	32.36074
2361	5.42567	3.1565709	83.8062	7.139690	32.35802
2362	5.42792	3.1563852	83.5973	7.139499	32.35385
2363	5.42992	3.1562676	83.3974	7.139304	32.35068
2364	5.43252	3.1563294	83.1946	7.138937	32.34898
2365	5.43538	3.1563911	82.9981	7.138539	32.34702
2366	5.43833	3.1563292	82.7979	7.138194	32.34357
2367	5.44133	3.1563229	82.5952	7.137813	32.34071
2368	5.44414	3.1560258	82.3924	7.137611	32.33474
2369	5.44679	3.1558154	82.1896	7.137383	32.32990
2370	5.45020	3.1558463	81.9898	7.136931	32.32707
2371	5.45385	3.1560689	81.7900	7.136346	32.32617
2372	5.45771	3.1555491	81.5813	7.136130	32.31667
2373	5.46196	3.1552459	81.3784	7.135748	32.30923
2374	5.46677	3.1555180	81.1786	7.134991	32.30779
2375	5.47108	3.1555179	80.9788	7.134442	32.30374
2376	5.47514	3.1552085	80.7699	7.134089	32.29644
2377	5.47970	3.1550970	80.5703	7.133567	32.29089
2378	5.48436	3.1551588	80.3613	7.132940	32.28721
2379	5.48852	3.1549483	80.1615	7.132522	32.28093
2380	5.49358	3.1551276	79.9588	7.131782	32.27820
2381	5.49915	3.1549914	79.7560	7.131147	32.27141
2382	5.50416	3.1547377	79.5532	7.130643	32.26382
2383	5.50877	3.1547623	79.3503	7.130043	32.25977
2384	5.51309	3.1547931	79.1537	7.129477	32.25608
2385	5.51680	3.1544343	78.9477	7.129194	32.24856
2386	5.52156	3.1545146	78.7541	7.128545	32.24499
2387	5.52673	3.1547062	78.5419	7.127787	32.24231
2388	5.53154	3.1548236	78.3511	7.127112	32.23911
2389	5.53676	3.1550957	78.1547	7.126305	32.23728
2390	5.54193	3.1549719	77.9428	7.125713	32.23103
2391	5.54705	3.1551140	77.7278	7.124987	32.22784
2392	5.55378	3.1547366	77.5130	7.124333	32.21723
2393	5.56025	3.1557818	77.3040	7.122959	32.22295
2394	5.56397	3.1546126	77.1045	7.123103	32.20627
2395	5.56341	3.1538023	76.9012	7.123596	32.19774
2396	5.56603	3.1542908	76.6923	7.123004	32.20086
2397	5.57401	3.1548536	76.4928	7.121695	32.19968
2398	5.58004	3.1543153	76.2900	7.121214	32.18793
2399	5.58506	3.1542843	76.0933	7.120593	32.18287
2400	5.59154	3.1545130	75.8903	7.119650	32.17936
2401	5.59742	3.1546737	75.6843	7.118820	32.17565
2402	5.60340	3.1544014	75.4905	7.118205	32.16696
2403	5.60983	3.1545807	75.2816	7.117295	32.16293
2404	5.61531	3.1543393	75.0912	7.116727	32.15507
2405	5.62094	3.1542897	74.8851	7.116039	32.14923
2406	5.62642	3.1541597	74.6917	7.115413	32.14263
2407	5.63100	3.1540421	74.4826	7.114893	32.13704
2408	5.63512	3.1541038	74.2830	7.114337	32.13390
2409	5.63889	3.1544316	74.0830	7.113684	32.13409
2410	5.64216	3.1543511	73.8774	7.113310	32.13016
2411	5.64644	3.1544623	73.6775	7.112709	32.12744
2412	5.65137	3.1540107	73.4807	7.112321	32.11774
2413	5.65549	3.1534725	73.2777	7.112080	32.10784
2414	5.66038	3.1536517	73.0719	7.111366	32.10531
2415	5.66526	3.1536887	72.8753	7.110727	32.10117
2416	5.67009	3.1537999	72.6753	7.110056	32.09792
2417	5.67678	3.1535895	72.4726	7.109319	32.08927
2418	5.68287	3.1531132	72.2670	7.108798	32.07821
2419	5.68771	3.1532430	72.0699	7.108117	32.07516
2420	5.69305	3.1536510	71.8763	7.107227	32.07477
2421	5.69718	3.1533479	71.6768	7.106861	32.06753
2422	5.70065	3.1535581	71.4677	7.106309	32.06669
2423	5.70519	3.1535580	71.2678	7.105734	32.06248
2424	5.70856	3.1532424	71.0588	7.105470	32.05582
2425	5.71224	3.1535021	70.8560	7.104867	32.05534
2426	5.71632	3.1536504	70.6531	7.104272	32.05323
2427	5.72131	3.1538606	70.4535	7.103530	32.05095
2428	5.72675	3.1539471	70.2566	7.102796	32.04685
2429	5.73083	3.1536192	70.0510	7.102449	32.03938
2430	5.73532	3.1534088	69.8450	7.101991	32.03285
2431	5.74137	3.1539220	69.6483	7.100957	32.03298
2432	5.74621	3.1541012	69.4512	7.100251	32.03049
2433	5.74893	3.1539775	69.2456	7.099969	32.02661
2434	5.75115	3.1536867	69.0397	7.099837	32.02134
2435	5.75438	3.1535010	68.8396	7.099524	32.01629
2436	5.75816	3.1539215	68.6400	7.098825	32.01752
2437	5.76119	3.1545214	68.4375	7.098126	32.02149
2438	5.76331	3.1540698	68.2344	7.098092	32.01450
2439	5.76482	3.1540017	68.0315	7.097932	32.01240
2440	5.76805	3.1543356	67.8106	7.097347	32.01320
2441	5.77234	3.1540695	67.5987	7.096943	32.00624
2442	5.77895	3.1547312	67.4047	7.095763	32.00750
2443	5.78354	3.1546940	67.2021	7.095201	32.00283
2444	5.78192	3.1532281	66.9870	7.096164	31.98800
2445	5.77859	3.1533456	66.7964	7.096517	31.99257
2446	5.78248	3.1539206	66.5876	7.095724	31.99545
2447	5.79040	3.1535247	66.3848	7.094931	31.98359
2448	5.79757	3.1531782	66.1728	7.094207	31.97302
2449	5.80408	3.1532276	65.9819	7.093360	31.96750
2450	5.80984	3.1535861	65.7730	7.092445	31.96617
2451	5.81413	3.1541550	65.5762	7.091606	31.96859
2452	5.81737	3.1543652	65.3765	7.091086	31.96799
2453	5.82095	3.1546930	65.1736	7.090461	31.96837
2454	5.82509	3.1546990	64.9708	7.089934	31.96461
2455	5.82959	3.1546989	64.7621	7.089365	31.96046
2456	5.83540	3.1546988	64.5652	7.088632	31.95506
2457	5.84020	3.1554162	64.3564	7.087652	31.95866
2458	5.84344	3.1551687	64.1534	7.087371	31.95293
2459	5.84551	3.1546057	63.9506	7.087399	31.94475
2460	5.84935	3.1547293	63.7476	7.086849	31.94261
2461	5.85526	3.1552055	63.5507	7.085856	31.94245
2462	5.86047	3.1548837	63.3420	7.085366	31.93402
2463	5.86502	3.1550568	63.1299	7.084701	31.93177
2464	5.86932	3.1555392	62.9301	7.083907	31.93321
2465	5.87347	3.1559845	62.7306	7.083152	31.93437
2466	5.87706	3.1563804	62.5276	7.082492	31.93551
2467	5.88014	3.1564050	62.3248	7.082088	31.93297
2468	5.88419	3.1561389	62.1218	7.081715	31.92627
2469	5.88925	3.1566152	61.9221	7.080830	31.92692
2470	5.89406	3.1567388	61.7130	7.080159	31.92387
2471	5.89871	3.1563489	61.5104	7.079774	31.91521
2472	5.90494	3.1569737	61.3074	7.078667	31.91643
2473	5.91157	3.1574005	61.1107	7.077612	31.91504
2474	5.91663	3.1572457	60.9018	7.077054	31.90864
2475	5.92058	3.1574869	60.6989	7.076430	31.90771
2476	5.92493	3.1573692	60.4991	7.075942	31.90238
2477	5.93000	3.1579569	60.2932	7.075000	31.90428
2478	5.93486	3.1581796	60.0963	7.074272	31.90228
2479	5.94013	3.1582723	59.8813	7.073561	31.89846
2480	5.94783	3.1588724	59.6785	7.072284	31.89801
2481	5.95543	3.1589898	59.4726	7.071269	31.89226
2482	5.96120	3.1589712	59.2638	7.070552	31.88671
2483	5.96653	3.1591691	59.0641	7.069780	31.88400
2484	5.97205	3.1593237	58.8581	7.069006	31.88063
2485	5.97798	3.1601034	58.6522	7.067858	31.88385
2486	5.98336	3.1609451	58.4463	7.066748	31.88829
2487	5.98787	3.1608769	58.2465	7.066215	31.88338
2488	5.99345	3.1612482	58.0497	7.065323	31.88237
2489	6.00106	3.1621209	57.8407	7.063919	31.88505
2490	6.00892	3.1618484	57.6259	7.063074	31.87471
2491	6.02069	3.1625726	57.4290	7.061229	31.87181
2492	6.03079	3.1625105	57.2289	7.059997	31.86172
2493	6.03628	3.1624051	57.0263	7.059364	31.85549
2494	6.04618	3.1635009	56.8235	7.057562	31.85850
2495	6.06589	3.1647391	56.6114	7.054466	31.85389
2496	6.08220	3.1651600	56.3997	7.052216	31.84336
2497	6.09857	3.1662127	56.2059	7.049635	31.83981
2498	6.11550	3.1667885	56.0088	7.047230	31.83043
2499	6.13056	3.1670856	55.8030	7.045202	31.81972
2500	6.14664	3.1677235	55.5943	7.042874	31.81184
2501	6.16309	3.1685039	55.3913	7.040429	31.80521
2502	6.17684	3.1692906	55.1915	7.038316	31.80117
2503	6.19207	3.1702880	54.9887	7.035913	31.79809
2504	6.20889	3.1710873	54.7886	7.033417	31.79133
2505	6.22852	3.1720663	54.5829	7.030482	31.78394
2506	6.24699	3.1726115	54.3801	7.027914	31.77282
2507	6.26434	3.1736713	54.1711	7.025223	31.76847
2508	6.28114	3.1747561	53.9685	7.022591	31.76490
2509	6.29743	3.1755433	53.7591	7.020173	31.75852
2510	6.31430	3.1759028	53.5565	7.017904	31.74687
2511	6.33316	3.1767831	53.3536	7.015125	31.73913
2512	6.35346	3.1776326	53.1417	7.012185	31.72971
2513	6.37229	3.1782650	52.9416	7.009539	31.71926
2514	6.38790	3.1791457	52.7420	7.007166	31.71456
2515	6.40316	3.1799023	52.5479	7.004901	31.70882
2516	6.42002	3.1808080	52.3362	7.002365	31.70325
2517	6.43785	3.1809194	52.1360	7.000110	31.68801
2518	6.45867	3.1818996	51.9304	6.997053	31.67959
2519	6.47780	3.1829295	51.7336	6.994179	31.67328
2520	6.48760	3.1834135	51.5245	6.992728	31.66962
2521	6.50048	3.1842326	51.3188	6.990731	31.66679
2522	6.51650	3.1849960	51.1190	6.988377	31.66044
2523	6.52862	3.1851448	50.9070	6.986811	31.65095
2524	6.54111	3.1863304	50.7100	6.984682	31.65252
2525	6.55190	3.1865724	50.5073	6.983234	31.64529
2526	6.55745	3.1867523	50.3012	6.982459	31.64222
2527	6.56969	3.1876960	50.0986	6.980484	31.64137
2528	6.58399	3.1885156	49.8985	6.978320	31.63724
2529	6.59736	3.1892110	49.6958	6.976331	31.63261
2530	6.61332	3.1902170	49.4928	6.973874	31.62900
2531	6.62995	3.1914344	49.3021	6.971230	31.62708
2532	6.64329	3.1924283	49.0840	6.969101	31.62577
2533	6.65447	3.1931365	48.8904	6.967379	31.62330
2534	6.66740	3.1936211	48.6872	6.965554	31.61677
2535	6.68606	3.1942609	48.4814	6.962955	31.60665
2536	6.70685	3.1949319	48.2785	6.960083	31.59493
2537	6.72238	3.1961189	48.0726	6.957597	31.59371
2538	6.73658	3.1967900	47.8608	6.955531	31.58807
2539	6.75305	3.1974923	47.6669	6.953174	31.58067
2540	6.76979	3.1986797	47.4548	6.950545	31.57835
2541	6.77170	3.1979770	47.2522	6.950656	31.56900
2542	6.78084	3.1986608	47.0523	6.949201	31.56815
2543	6.80856	3.1996243	46.8491	6.945352	31.55329
2544	6.83230	3.2001713	46.6493	6.942194	31.53754
2545	6.84493	3.2011227	46.4436	6.940188	31.53643
2546	6.85244	3.2017881	46.2347	6.938945	31.53689
2547	6.86067	3.2030757	46.0346	6.937309	31.54347
2548	6.86973	3.2039902	45.8258	6.935756	31.54522
2549	6.87926	3.2051785	45.6230	6.934013	31.54952
2550	6.88947	3.2048174	45.4200	6.932949	31.53631
2551	6.90466	3.2049666	45.2111	6.931032	31.52411
2552	6.92228	3.2055762	45.0081	6.928594	31.51468
2553	6.93510	3.2064286	44.8052	6.926621	31.51232
2554	6.94999	3.2072936	44.6023	6.924392	31.50819
2555	6.96270	3.2076544	44.3993	6.922674	31.50057
2556	6.97542	3.2081460	44.1964	6.920892	31.49436
2557	6.98612	3.2089738	43.9936	6.919191	31.49367
2558	6.99168	3.2093410	43.7908	6.918336	31.49267
2559	6.99443	3.2095838	43.5911	6.917881	31.49288
2560	6.99771	3.2093409	43.3850	6.917600	31.48735
2561	7.00420	3.2098886	43.1822	6.916544	31.48745
2562	7.01699	3.2104426	42.9732	6.914726	31.48188
2563	7.02936	3.2105919	42.7642	6.913156	31.47229
2564	7.04116	3.2114822	42.5522	6.911294	31.47127
2565	7.04834	3.2120986	42.3522	6.910125	31.47150
2566	7.04886	3.2128024	42.1497	6.909715	31.47876
2567	7.05375	3.2126341	41.9438	6.909204	31.47256
2568	7.05854	3.2123724	41.7376	6.908750	31.46545
2569	7.07212	3.2126774	41.5288	6.906960	31.45645
2570	7.08899	3.2142407	41.3227	6.904165	31.45811
2571	7.09722	3.2145458	41.1228	6.903023	31.45401
2572	7.09977	3.2149133	40.9260	6.902533	31.45575
2573	7.10560	3.2154365	40.7200	6.901573	31.45620
2574	7.11149	3.2156482	40.5081	6.900758	31.45322
2575	7.12275	3.2157103	40.2960	6.899370	31.44373
2576	7.13635	3.2162647	40.0963	6.897461	31.43743
2577	7.14845	3.2178287	39.8901	6.895246	31.44344
2578	7.15585	3.2184456	39.6874	6.894054	31.44346
2579	7.16049	3.2185951	39.4904	6.893420	31.44094
2580	7.16728	3.2183830	39.2815	6.892704	31.43257
2581	7.17698	3.2193677	39.0847	6.891059	31.43448
2582	7.18831	3.2200719	38.8787	6.889356	31.43188
2583	7.19154	3.2197975	38.6847	6.889096	31.42606
2584	7.19420	3.2205019	38.4820	6.888433	31.43134
2585	7.20016	3.2213747	38.2850	6.887294	31.43545
2586	7.20856	3.2228399	38.0640	6.885574	31.44374
2587	7.22225	3.2223470	37.8642	6.884168	31.42606
2588	7.22956	3.2224404	37.6704	6.883243	31.42051
2589	7.20407	3.2226215	37.4765	6.886206	31.44574
2590	7.14553	3.2228403	37.2827	6.893118	31.50155
2591	7.11628	3.2233893	37.0827	6.896358	31.53429
2592	7.14136	3.2235137	36.8951	6.893285	31.51283
2593	7.16895	3.2240685	36.6981	6.889703	31.49374
2594	7.19937	3.2236377	36.4984	6.886259	31.46145
2595	7.22502	3.2238806	36.3015	6.883065	31.44082
2596	7.26150	3.2250528	36.1046	6.878129	31.42040
2597	7.30315	3.2263748	35.9139	6.872511	31.39694
2598	7.33064	3.2271481	35.7076	6.868852	31.38044
2599	7.34730	3.2278218	35.5110	6.866536	31.37269
2600	7.35914	3.2283457	35.3113	6.864868	31.36769
2601	7.37125	3.2290570	35.1110	6.863079	31.36447
2602	7.38357	3.2288695	34.9143	6.861695	31.35139
2603	7.39852	3.2295808	34.7174	6.859570	31.34561
2604	7.41752	3.2306603	34.5205	6.856788	31.34012
2605	7.43007	3.2302232	34.3267	6.855498	31.32418
2606	7.44262	3.2309034	34.1295	6.853676	31.32024
2607	7.45370	3.2322953	33.9300	6.851690	31.32526
2608	7.45602	3.2322640	33.7360	6.851426	31.32293
2609	7.45449	3.2325074	33.5451	6.851488	31.32701
2610	7.45990	3.2330942	33.3363	6.850561	31.32851
2611	7.47089	3.2332813	33.1456	6.849162	31.32069
2612	7.48371	3.2341428	32.9546	6.847224	31.31845
2613	7.49918	3.2347608	32.7638	6.845090	31.31121
2614	7.50575	3.2350417	32.5700	6.844172	31.30838
2615	7.51675	3.2358410	32.3761	6.842483	31.30712
2616	7.53522	3.2360593	32.1764	6.840183	31.29291
2617	7.55223	3.2367399	31.9826	6.837840	31.28497
2618	7.56592	3.2373581	31.7884	6.835919	31.27935
2619	7.57694	3.2383138	31.5976	6.834159	31.27975
2620	7.58816	3.2384698	31.3919	6.832751	31.27141
2621	7.60540	3.2394880	31.1920	6.830225	31.26689
2622	7.62803	3.2398939	30.9890	6.827351	31.25098
2623	7.64872	3.2409122	30.8073	6.824421	31.24336
2624	7.66071	3.2410682	30.6074	6.822927	31.23436
2625	7.66514	3.2410056	30.4103	6.822428	31.22980
2626	7.67417	3.2415617	30.2195	6.821095	31.22772
2627	7.68606	3.2421178	30.0287	6.819426	31.22308
2628	7.69843	3.2433615	29.8230	6.817378	31.22535
2629	7.71138	3.2439802	29.6260	6.815555	31.22043
2630	7.72148	3.2448491	29.4322	6.813952	31.22073
2631	7.73132	3.2455305	29.2322	6.812468	31.21927
2632	7.73962	3.2456804	29.0414	6.811415	31.21351
2633	7.75021	3.2459616	28.8474	6.810032	31.20712
2634	7.76259	3.2460865	28.6537	6.808511	31.19745
2635	7.77467	3.2462114	28.4507	6.807026	31.18807
2636	7.78891	3.2470492	28.2510	6.804953	31.18434
2637	7.80269	3.2475743	28.0661	6.803083	31.17769
2638	7.81361	3.2481308	27.8630	6.801535	31.17395
2639	7.82760	3.2486310	27.6571	6.799652	31.16686
2640	7.84139	3.2486621	27.4634	6.798012	31.15497
2641	7.85264	3.2489371	27.2602	6.796559	31.14794
2642	7.82750	3.2487246	27.0574	6.799609	31.16822
2643	7.81806	3.2497756	26.8696	6.800224	31.18790
2644	7.84468	3.2497753	26.6578	6.797091	31.16422
2645	7.87233	3.2494684	26.4604	6.793983	31.13639
2646	7.89904	3.2508006	26.2729	6.790225	31.12681
2647	7.92295	3.2514510	26.0668	6.787114	31.11251
2648	7.93991	3.2520766	25.8701	6.784832	31.10413
2649	7.94980	3.2525082	25.6731	6.783469	31.10000
2650	7.95842	3.2533154	25.4762	6.782082	31.10097
2651	7.97231	3.2541852	25.2795	6.780050	31.09792
2652	7.98348	3.2545605	25.0824	6.778564	31.09205
2653	7.99573	3.2557122	24.8824	6.776596	31.09345
2654	8.01208	3.2557120	24.6887	6.774680	31.07901
2655	8.02860	3.2561187	24.4857	6.772558	31.06875
2656	8.04443	3.2565504	24.2918	6.770505	31.05935
2657	8.05861	3.2570824	24.0919	6.768600	31.05249
2658	8.06795	3.2573578	23.8980	6.767380	31.04721
2659	8.07926	3.2586977	23.7043	6.765439	31.05142
2660	8.09874	3.2590419	23.5073	6.763005	31.03789
2661	8.11663	3.2595427	23.3103	6.760686	31.02743
2662	8.13356	3.2601625	23.1135	6.758425	31.01907
2663	8.15141	3.2601623	22.9168	6.756342	31.00338
2664	8.16456	3.2607885	22.7138	6.754520	30.99845
2665	8.17954	3.2613145	22.5108	6.752533	30.99085
2666	8.19591	3.2621287	22.3138	6.750252	30.98506
2667	8.21261	3.2627800	22.1199	6.748009	30.97726
2668	8.23087	3.2636257	21.9199	6.745498	30.97014
2669	8.24866	3.2635314	21.7227	6.743471	30.95357
2670	8.25938	3.2640263	21.5233	6.741998	30.94942
2671	8.26827	3.2644335	21.3354	6.740776	30.94594
2672	8.27723	3.2644960	21.1355	6.739705	30.93881
2673	8.28506	3.2655864	20.9354	6.738297	30.94345
2674	8.29745	3.2660249	20.7385	6.736657	30.93724
2675	8.30620	3.2664009	20.5386	6.735468	30.93358
2676	8.31811	3.2670526	20.3387	6.733788	30.93003
2677	8.33153	3.2674097	20.1416	6.732067	30.92207
2678	8.34448	3.2674283	19.9508	6.730556	30.91098
2679	8.35608	3.2676162	19.7511	6.729124	30.90285
2680	8.37167	3.2681175	19.5511	6.727090	30.89451
2681	8.38543	3.2680546	19.3541	6.725523	30.88187
2682	8.39968	3.2681798	19.1545	6.723814	30.87077
2683	8.41200	3.2685558	18.9572	6.722217	30.86400
2684	8.42303	3.2685556	18.7483	6.720938	30.85443
2685	8.43218	3.2689317	18.5512	6.719707	30.85044
2686	8.44247	3.2689879	18.3605	6.718491	30.84212
2687	8.45173	3.2692072	18.1666	6.717318	30.83639
2688	8.46218	3.2690190	17.9758	6.716193	30.82537
2689	8.47312	3.2692382	17.7730	6.714828	30.81819
2690	8.48767	3.2691753	17.5821	6.713174	30.80491
2691	8.49775	3.2688930	17.3639	6.712134	30.79326
2692	8.50859	3.2691436	17.1667	6.710767	30.78650
2693	8.52472	3.2679270	16.9760	6.709450	30.75984
2694	8.53055	3.2680836	16.7884	6.708705	30.75647
2695	8.54280	3.2676132	16.5944	6.707500	30.74099
2696	8.56035	3.2681459	16.4003	6.705235	30.73135
2697	8.57526	3.2682084	16.2065	6.703486	30.71912
2698	8.58742	3.2680515	16.0187	6.702153	30.70700
2699	8.61067	3.2677063	15.8185	6.699628	30.68331
2700	8.63501	3.2674239	15.6248	6.696950	30.65934
2701	8.65525	3.2669597	15.4369	6.694825	30.63706
2702	8.67659	3.2667714	15.2491	6.692453	30.61672
2703	8.70303	3.2664576	15.0585	6.689551	30.59069
2704	8.72781	3.2656424	14.8703	6.687064	30.56093
2705	8.74880	3.2652974	14.6764	6.684803	30.53933
2706	8.76775	3.2647394	14.4889	6.682873	30.51732
2707	8.78349	3.2638931	14.2980	6.681438	30.49509
2708	8.79784	3.2633352	14.1071	6.680036	30.47707
2709	8.81093	3.2625518	13.9103	6.678877	30.45780
2710	8.83616	3.2620879	13.7312	6.676186	30.43144
2711	8.86614	3.2611791	13.5343	6.673148	30.39645
2712	8.88851	3.2606526	13.3376	6.670813	30.37196
2713	8.90317	3.2596815	13.1465	6.669559	30.34950
2714	8.91237	3.2594057	12.9619	6.668623	30.33887
2715	8.92889	3.2584661	12.7649	6.667142	30.31518
2716	8.94514	3.2577520	12.5833	6.665592	30.29405
2717	8.96134	3.2571005	12.3953	6.664021	30.27362
2718	8.97962	3.2559482	12.2074	6.662431	30.24629
2719	8.99474	3.2551029	12.0196	6.661068	30.22482
2720	9.01692	3.2543890	11.8438	6.658841	30.19873
2721	9.03873	3.2535187	11.6589	6.656726	30.17138
2722	9.06055	3.2526172	11.4653	6.654622	30.14373
2723	9.08260	3.2512777	11.2896	6.652684	30.11142
2724	9.10072	3.2504704	11.0986	6.650963	30.08792
2725	9.11386	3.2494191	10.9106	6.649916	30.06613
2726	9.12460	3.2485182	10.7199	6.649079	30.04793
2727	9.13287	3.2471483	10.5319	6.648726	30.02702
2728	9.14295	3.2463726	10.3472	6.647909	30.01066
2729	9.15765	3.2449467	10.1504	6.646847	29.98380
2730	9.16686	3.2433398	9.9626	6.646490	29.95970
2731	9.17750	3.2414770	9.7865	6.646080	29.93180
2732	9.19572	3.2400144	9.5897	6.644630	29.90167
2733	9.21724	3.2386332	9.4110	6.642767	29.86962
2734	9.23828	3.2372586	9.2231	6.640957	29.83808
2735	9.25411	3.2353533	9.0323	6.639971	29.80552
2736	9.26604	3.2327929	8.8413	6.639712	29.76955
2737	9.28551	3.2306639	8.6537	6.638405	29.73172
2738	9.30345	3.2292094	8.4747	6.636981	29.70208
2739	9.31804	3.2272061	8.3020	6.636176	29.66965
2740	9.32575	3.2259457	8.1113	6.635835	29.65052
2741	9.33274	3.2237624	7.9294	6.635974	29.62259
2742	9.34624	3.2207130	7.7506	6.635742	29.58049
2743	9.36018	3.2185061	7.5750	6.635095	29.54662
2744	9.37700	3.2162000	7.4021	6.634162	29.50940
2745	9.39332	3.2134398	7.2295	6.633479	29.46801
2746	9.40370	3.2106183	7.0718	6.633501	29.43092
2747	9.42279	3.2089370	6.9204	6.632037	29.39826
2748	9.43279	3.2060610	6.7782	6.632124	29.36097
2749	9.43759	3.2040447	6.6417	6.632436	29.33666
2750	9.44013	3.2014131	6.5082	6.633271	29.30798
2751	9.43958	3.1990373	6.3810	6.634350	29.28442
2752	9.43439	3.1967492	6.2598	6.635923	29.26554
2753	9.43240	3.1945053	6.1294	6.637111	29.24449
2754	9.45030	3.1935790	6.0021	6.635454	29.22056
2755	9.47484	3.1909319	5.8840	6.633773	29.17385
2756	9.50265	3.1871366	5.7567	6.632205	29.11294
2757	9.52213	3.1841005	5.6264	6.631267	29.06653
2758	9.53686	3.1800975	5.4963	6.631284	29.01426
2759	9.54699	3.1763136	5.3720	6.631733	28.96795
2760	9.56289	3.1733372	5.2449	6.631175	28.92518
2761	9.57813	3.1703557	5.1143	6.630693	28.88292
2762	9.58794	3.1683665	4.9903	6.630411	28.85504
2763	9.59754	3.1674619	4.8657	6.629692	28.83828
2764	9.61251	3.1656530	4.7416	6.628740	28.80812
2765	9.62289	3.1638135	4.6052	6.628328	28.78135
2766	9.62739	3.1631138	4.4749	6.628106	28.77077
2767	9.62694	3.1611636	4.3507	6.628983	28.75156
2768	9.62716	3.1605012	4.2142	6.629237	28.74477
2769	9.63099	3.1580937	4.0841	6.629817	28.71755
2770	9.63066	3.1550003	3.9475	6.631166	28.68677
2771	9.62961	3.1546724	3.8143	6.631424	28.68437
2772	9.63616	3.1535590	3.6808	6.631141	28.66801
2773	9.64587	3.1514873	3.5507	6.630901	28.63950
2774	9.64682	3.1504424	3.4204	6.631233	28.62830
2775	9.64326	3.1494533	3.2960	6.632060	28.62124
2776	9.64176	3.1478339	3.1628	6.632917	28.60621
2777	9.64426	3.1478338	3.0352	6.632628	28.60428
2778	9.64854	3.1489710	2.8992	6.631651	28.61235
2779	9.64115	3.1515489	2.7658	6.631405	28.64419
2780	9.62356	3.1521056	2.6384	6.633190	28.66385
2781	9.60541	3.1592074	2.5111	6.632257	28.74983
2782	9.59615	3.1676717	2.3780	6.629720	28.84251
2783	9.59743	3.1693012	2.2504	6.628879	28.85794
2784	9.60136	3.1739806	2.1144	6.626435	28.90196
2785	9.67909	3.1731056	1.9898	6.617902	28.83082
2786	9.82531	3.1688402	1.8596	6.602986	28.67143
2787	9.94208	3.1576690	1.7294	6.594338	28.46753
2788	10.03839	3.1500175	1.6051	6.586541	28.31583
2789	10.09425	3.1342064	1.4688	6.586729	28.11542
2790	10.13067	3.1276683	1.3474	6.585275	28.02248
2791	10.19449	3.1228109	1.2234	6.579992	27.92527
2792	10.26739	3.1166756	1.0898	6.574196	27.80883
2793	10.33902	3.1063746	0.9717	6.570247	27.65281
2794	10.40058	3.0960744	0.8472	6.567428	27.50502
2795	10.44399	3.0902048	0.7231	6.564864	27.41480
2796	10.46923	3.0856153	0.6020	6.563849	27.35093
2797	10.49522	3.0751701	0.4808	6.565123	27.22932
2798	10.52646	3.0670389	0.3594	6.564849	27.12663
2799	10.55590	3.0662982	0.2384	6.561779	27.09758
2800	10.57382	3.1306232	0.1233	6.533712	27.71269
2801	10.49596	3.1399543	0.0050	6.538725	27.86341
2802	10.16037	3.1244685	-0.0255	6.583184	27.96842
2803	9.90070	3.1019955	-0.0226	6.622347	27.94594
2804	9.86807	3.0853145	-0.0286	6.633117	27.80506
2805	9.94387	3.0737790	-0.0256	6.629165	27.63221
2806	10.03351	3.0558404	-0.0289	6.626253	27.38624
2807	10.10155	0.7775553	-0.0290	7.569397	6.17869
2808	10.10875	0.6562268	-0.0259	7.617703	5.14988
2809	10.08307	0.5297084	-0.0290	7.673304	4.09847
2810	10.06634	0.4658575	-0.0351	7.701846	3.57523
2811	10.05680	0.5759574	-0.0231	7.659193	4.48518
2812	10.04720	0.5220167	-0.0262	7.682646	4.03894
2813	10.03463	0.5247295	-0.0262	7.683743	4.06275
2814	10.02112	0.6031141	-0.0382	7.654339	4.71635
2815	10.00789	0.5369908	-0.0291	7.683452	4.16728
2816	9.99315	0.4297361	-0.0262	7.729184	3.28726
2817	9.97511	0.4602816	-0.0326	7.720124	3.53850
2818	9.95540	0.4470653	-0.0265	7.728911	3.43219
2819	9.93833	0.4232336	-0.0296	7.741494	3.23921
2820	9.92323	0.3864647	-0.0328	7.758885	2.94188
2821	9.90864	0.3899713	-0.0299	7.760087	2.97147
2822	9.89388	0.4608325	-0.0299	7.734240	3.55094
2823	9.87896	0.3930991	-0.0329	7.764130	2.99927
2824	9.85863	0.3645165	-0.0329	7.779195	2.76955
2825	9.84679	0.3430636	-0.0272	7.789873	2.59762
2826	9.83039	0.3461615	-0.0362	7.791590	2.62371
2827	9.81745	0.3134609	-0.0331	7.806930	2.36237
2828	9.80813	0.3274175	-0.0304	7.803066	2.47471
2829	9.79971	0.4059563	-0.0306	7.773117	3.11051
2830	9.79330	0.3489425	-0.0365	7.797155	2.64880
2831	9.78661	0.3138298	-0.0335	7.812359	2.36732
2832	9.77915	0.2683732	-0.0367	7.831706	2.00618
2833	9.77112	0.2665120	-0.0306	7.833901	1.99190
2834	9.76366	0.2111054	-0.0336	7.856964	1.55752
2835	9.75642	0.1931577	-0.0340	7.865260	1.41854
2836	9.74957	0.1845111	-0.0309	7.869865	1.35199
2837	9.74222	0.1768508	-0.0309	7.874176	1.29323
2838	9.73504	0.1638282	-0.0310	7.880513	1.19349
2839	9.72697	0.1477246	-0.0308	7.888175	1.07077
2840	9.71935	0.1352374	-0.0280	7.894349	0.97619
2841	9.71312	0.1509935	-0.0281	7.889491	1.09609
2842	9.70806	0.1579843	-0.0342	7.887747	1.14963
2843	9.70305	0.1499880	-0.0341	7.891741	1.08872
2844	9.69822	0.1563876	-0.0376	7.890183	1.13773
2845	9.69393	0.1506836	-0.0377	7.893164	1.09430
2846	9.68954	0.1377218	-0.0377	7.898935	0.99582
2847	9.68510	0.1273166	-0.0346	7.903722	0.91719
2848	9.68104	0.1166353	-0.0317	7.908526	0.83683
2849	9.67681	0.1108962	-0.0377	7.911481	0.79387
2850	9.67265	0.1062322	-0.0350	7.914016	0.75907
2851	9.66842	0.1022009	-0.0381	7.916320	0.72906
2852	9.66431	0.1224407	-0.0319	7.909441	0.88091
2853	9.66015	0.1279730	-0.0319	7.908114	0.92277
2854	9.65559	0.1306132	-0.0352	7.907956	0.94286
2855	9.65104	0.1280122	-0.0355	7.909795	0.92330
2856	9.64559	0.1313195	-0.0323	7.909548	0.94847
2857	9.64049	0.1234118	-0.0415	7.913511	0.88881
2858	9.63582	0.1281167	-0.0324	7.912589	0.92448
2859	9.63188	0.1500572	-0.0326	7.904922	1.09138
2860	9.62811	0.1694569	-0.0265	7.898136	1.24028
2861	9.62467	0.1763810	-0.0357	7.896089	1.29378
