Scan Count	Temperature [ITS-90, deg C]	Conductivity [S/m]	Depth [salt water, m]	Oxygen Saturation, Weiss [ml/l]	Salinity, Practical [PSU]
1	9.56472	0.0007431	-0.1167	7.972354	0.00817
2	9.56694	0.0007307	-0.1106	7.971937	0.00810
3	9.56904	0.0007369	-0.1137	7.971536	0.00813
4	9.57165	0.0007400	-0.1105	7.971041	0.00815
5	9.57386	0.0007369	-0.1105	7.970622	0.00814
6	9.57597	0.0007400	-0.1106	7.970222	0.00815
7	9.57730	0.0007400	-0.1136	7.969970	0.00816
8	9.57741	0.0007369	-0.1106	7.969950	0.00814
9	9.57835	0.0007307	-0.1106	7.969773	0.00810
10	9.57952	0.0007369	-0.1106	7.969551	0.00814
11	9.58113	0.0007307	-0.1043	7.969248	0.00811
12	9.58201	0.0007400	-0.1075	7.969077	0.00816
13	9.58351	0.0007369	-0.1104	7.968794	0.00814
14	9.58501	0.0007307	-0.1107	7.968513	0.00811
15	9.58639	0.0007307	-0.1166	7.968250	0.00811
16	9.58794	0.0007307	-0.1165	7.967956	0.00811
17	9.58850	0.0007307	-0.1135	7.967851	0.00811
18	9.58889	0.0007307	-0.1106	7.967777	0.00811
19	9.58977	0.0007307	-0.1076	7.967609	0.00811
20	9.59011	0.0007369	-0.1166	7.967545	0.00814
21	9.58961	0.0007400	-0.1133	7.967638	0.00816
22	9.59016	0.0007307	-0.1104	7.967536	0.00811
23	9.58961	0.0007369	-0.1133	7.967639	0.00814
24	9.58151	0.0007307	-0.1074	7.969174	0.00811
25	9.57204	0.0007307	-0.1103	7.970970	0.00810
26	9.56832	0.0007400	-0.1135	7.971672	0.00815
27	9.56865	0.0007307	-0.1103	7.971611	0.00810
28	9.56993	0.0007307	-0.1103	7.971370	0.00810
29	9.57220	0.0007215	-0.1164	7.970942	0.00805
30	9.57425	0.0007215	-0.1133	7.970553	0.00805
31	9.57586	0.0007215	-0.1132	7.970248	0.00805
32	9.57713	0.0007307	-0.1102	7.970004	0.00810
33	9.57808	0.0007215	-0.1073	7.969828	0.00805
34	9.57907	0.0007307	-0.1103	7.969636	0.00810
35	9.58040	0.0007307	-0.1072	7.969384	0.00811
36	9.58052	0.0007215	-0.1163	7.969366	0.00805
37	9.58162	0.0007215	-0.1102	7.969156	0.00805
38	9.58312	0.0007215	-0.1071	7.968872	0.00806
39	9.58445	0.0007307	-0.1070	7.968618	0.00811
40	9.58528	0.0007215	-0.1070	7.968463	0.00806
41	9.58523	0.0007215	-0.1101	7.968473	0.00806
42	9.58456	0.0007307	-0.1070	7.968597	0.00811
43	9.58279	0.0007307	-0.1100	7.968933	0.00811
44	9.58174	0.0007215	-0.1098	7.969135	0.00805
45	9.58002	0.0007215	-0.1070	7.969460	0.00805
46	9.57880	0.0007307	-0.1070	7.969689	0.00810
47	9.57896	0.0007215	-0.1129	7.969660	0.00805
48	9.57963	0.0007307	-0.1099	7.969531	0.00810
49	9.58079	0.0007215	-0.1099	7.969313	0.00805
50	9.58168	0.0007215	-0.1099	7.969145	0.00805
51	9.58235	0.0007369	-0.1069	7.969015	0.00814
52	9.57591	0.0007400	-0.1159	7.970233	0.00815
53	9.55198	0.0007616	-0.1129	7.974765	0.00826
54	9.53165	0.0007678	-0.1128	7.978620	0.00829
55	9.51084	0.0007739	-0.1128	7.982571	0.00832
56	9.49087	0.0007863	-0.1098	7.986364	0.00838
57	9.47257	0.0007924	-0.1067	7.989844	0.00841
58	9.45759	0.0008017	-0.1097	7.992693	0.00845
59	9.44317	0.0008110	-0.1096	7.995437	0.00850
60	9.42903	0.0008295	-0.1095	7.998127	0.00860
61	9.41479	0.0008325	-0.1065	8.000842	0.00861
62	9.40055	0.0008541	-0.1126	8.003553	0.00873
63	9.38913	0.0008572	-0.1066	8.005733	0.00874
64	9.37920	0.0008819	-0.1096	8.007622	0.00888
65	9.37071	0.0008912	-0.1067	8.009242	0.00893
66	9.36410	0.0009035	-0.1065	8.010503	0.00899
67	9.36162	0.0009097	-0.1064	8.010975	0.00903
68	9.35847	0.0009128	-0.1035	8.011575	0.00904
69	9.35026	0.0009344	-0.1095	8.013139	0.00917
70	9.34101	0.0009529	-0.1094	8.014905	0.00927
71	9.33434	0.0009683	-0.1035	8.016176	0.00935
72	9.33456	0.0009806	-0.1124	8.016130	0.00943
73	9.34029	0.0010146	-0.1154	8.015024	0.00962
74	9.34877	0.0010609	-0.1124	8.013387	0.00990
75	9.35699	0.0010948	-0.1125	8.011806	0.01010
76	9.35919	0.0011257	-0.1124	8.011375	0.01028
77	9.36277	0.0011503	-0.1064	8.010683	0.01042
78	9.36735	0.0011565	-0.1034	8.009806	0.01046
79	9.36917	0.0011750	-0.1032	8.009453	0.01057
80	9.37005	0.0012028	-0.1123	8.009276	0.01073
81	9.36999	0.0012583	-0.1062	8.009270	0.01106
82	9.36983	0.0012830	-0.1063	8.009294	0.01121
83	9.37485	0.0012830	-0.1061	8.008335	0.01121
84	9.38312	0.0012275	-0.1091	8.006772	0.01088
85	9.39117	0.0012213	-0.1031	8.005235	0.01085
86	9.39989	0.0012985	-0.1122	8.003548	0.01131
87	9.40844	0.0014157	-0.1061	8.001880	0.01200
88	9.41639	0.0015114	-0.1121	8.000335	0.01258
89	9.42406	0.0015330	-0.1120	7.998865	0.01271
90	9.42986	0.0015577	-0.1030	7.997752	0.01286
91	9.43544	0.0015670	-0.1030	7.996686	0.01292
92	9.43726	0.0015947	-0.1059	7.996330	0.01308
93	9.43124	0.0015824	-0.0999	7.997481	0.01301
94	9.42186	0.0015577	-0.1059	7.999278	0.01286
95	9.41159	0.0015145	-0.1089	8.001250	0.01260
96	9.40116	0.0015361	-0.1088	8.003233	0.01272
97	9.39106	0.0015762	-0.1029	8.005149	0.01296
98	9.38240	0.0016071	-0.1059	8.006793	0.01315
99	9.38108	0.0016287	-0.1026	8.007039	0.01328
100	9.37964	0.1018134	-0.0513	7.970684	0.73194
101	9.11211	2.1957986	0.0397	7.112942	19.54231
102	8.60710	2.4199705	0.1214	7.081876	22.04770
103	8.26961	2.4258571	0.1820	7.125164	22.31873
104	8.06379	2.4340643	0.2428	7.149576	22.53304
105	7.93215	2.4533641	0.3184	7.158615	22.81452
106	7.83694	2.4658389	0.4576	7.165818	23.00425
107	7.77472	2.4752181	0.5971	7.169930	23.14137
108	7.73174	2.4806287	0.7395	7.173270	23.22540
109	7.70192	2.4373578	0.8364	7.198003	22.80085
110	7.68897	2.4360415	0.8487	7.200429	22.79580
111	7.69822	2.4376110	0.8455	7.198396	22.80586
112	7.71212	2.4353045	0.8364	7.197566	22.77312
113	7.71857	2.4369020	0.8484	7.195910	22.78529
114	7.71905	2.4391808	0.8605	7.194758	22.80834
115	7.72042	2.4433410	0.8698	7.192586	22.85010
116	7.71783	2.4528810	0.8637	7.188400	22.94967
117	7.70768	2.4676424	0.8547	7.182769	23.10793
118	7.69795	2.4786195	0.8547	7.178878	23.22720
119	7.68913	2.4883782	0.8395	7.175440	23.33346
120	7.68057	2.4958182	0.8396	7.173067	23.41577
121	7.67375	2.5013580	0.8425	7.171360	23.47740
122	7.67021	2.5035956	0.8548	7.170778	23.50283
123	7.66741	2.5051067	0.8669	7.170440	23.52029
124	7.66456	2.5063056	0.8942	7.170260	23.53455
125	7.66187	2.5074023	0.9093	7.170105	23.54767
126	7.66002	2.5054988	0.9276	7.171268	23.52929
127	7.65706	2.5038002	0.9336	7.172485	23.51378
128	7.65215	2.5088404	0.9216	7.170751	23.56906
129	7.64756	2.5111372	0.9216	7.170283	23.59585
130	7.64540	2.5113476	0.9216	7.170479	23.59949
131	7.64561	2.5112396	0.9064	7.170501	23.59823
132	7.64629	2.5110349	0.8913	7.170505	23.59566
133	7.64640	2.5111657	0.8974	7.170428	23.59694
134	7.64608	2.5119845	0.9005	7.170080	23.60560
135	7.64587	2.5130708	0.9066	7.169590	23.61694
136	7.64656	2.5136452	0.9216	7.169222	23.62240
137	7.64798	2.5116092	0.9247	7.170000	23.60043
138	7.65358	2.4898069	0.9309	7.179648	23.37195
139	7.66039	2.4794689	0.9249	7.183649	23.26095
140	7.66361	2.4829282	0.9007	7.181552	23.29442
141	7.67322	2.5042488	0.8886	7.170053	23.50752
142	7.67571	2.5114782	0.8794	7.166264	23.58033
143	7.66937	2.5134403	0.8946	7.166196	23.60484
144	7.66382	2.5142481	0.9220	7.166570	23.61691
145	7.65997	2.5060499	0.9400	7.171012	23.53501
146	7.66129	2.4830529	0.9462	7.181813	23.29724
147	7.66134	2.4711303	0.9281	7.187501	23.17451
148	7.67211	2.4781783	0.9099	7.182649	23.23986
149	7.68331	2.4975376	0.8737	7.171871	23.43162
150	7.68511	2.5062542	0.8643	7.167467	23.52017
151	7.67962	2.5107219	0.8706	7.166089	23.56990
152	7.67264	2.5128886	0.9038	7.166011	23.59693
153	7.66683	2.5052033	0.9221	7.170475	23.52165
154	7.66678	2.4894440	0.9313	7.178005	23.35936
155	7.66593	2.4821014	0.9224	7.181627	23.28435
156	7.67439	2.4880723	0.9161	7.177614	23.34015
157	7.68321	2.5005233	0.9071	7.170462	23.46242
158	7.68495	2.5085275	0.9011	7.166406	23.54368
159	7.68020	2.5104035	0.8982	7.166162	23.56622
160	7.67370	2.5105627	0.9101	7.166976	23.57225
161	7.67211	2.5036240	0.9041	7.170504	23.50183
162	7.67555	2.4973617	0.9010	7.173021	23.43502
163	7.67238	2.4950184	0.9043	7.174575	23.41301
164	7.67027	2.4914396	0.9012	7.176573	23.37758
165	7.67777	2.4895743	0.8983	7.176432	23.35336
166	7.68627	2.4881459	0.9134	7.175944	23.33296
167	7.69505	2.4857659	0.9103	7.175872	23.30261
168	7.70408	2.4833640	0.9165	7.175774	23.27187
169	7.72291	2.4817103	0.9104	7.173973	23.24233
170	7.73714	2.4817894	0.9045	7.171979	23.23367
171	7.73851	2.4820725	0.8951	7.171655	23.23567
172	7.73576	2.4823840	0.8984	7.171885	23.24070
173	7.73322	2.4828767	0.9044	7.172000	23.24745
174	7.73328	2.4834147	0.9105	7.171736	23.25294
175	7.73206	2.4846552	0.9105	7.171314	23.26649
176	7.73719	2.4833694	0.9076	7.171220	23.24986
177	7.74476	2.4827180	0.8925	7.170490	23.23814
178	7.74047	2.4824349	0.8835	7.171213	23.23809
179	7.73301	2.4824067	0.8653	7.172252	23.24277
180	7.72619	2.4825143	0.8804	7.173139	23.24842
181	7.72106	2.4828485	0.8895	7.173685	23.25527
182	7.71725	2.4840096	0.8987	7.173656	23.26973
183	7.71714	2.4838283	0.9017	7.173757	23.26794
184	7.71899	2.4827466	0.9047	7.174018	23.25559
185	7.71878	2.4822029	0.8987	7.174305	23.25014
186	7.71566	2.4814782	0.8927	7.175079	23.24478
187	7.71027	2.4801364	0.8958	7.176461	23.23458
188	7.70509	2.4784893	0.9018	7.177959	23.22109
189	7.70044	2.4768652	0.9049	7.179373	23.20749
190	7.69832	2.4759882	0.9050	7.180082	23.19989
191	7.70044	2.4730808	0.9020	7.181177	23.16860
192	7.70398	2.4711300	0.8958	7.181618	23.14620
193	7.70266	2.4702820	0.8870	7.182205	23.13837
194	7.70742	2.4687162	0.8869	7.182295	23.11913
195	7.71804	2.4682810	0.8901	7.181037	23.10761
196	7.72878	2.4698974	0.9022	7.178787	23.11710
197	7.73862	2.4709601	0.8992	7.176926	23.12149
198	7.75233	2.4725658	0.8993	7.174275	23.12889
199	7.75926	2.4722603	0.8993	7.173466	23.12117
200	7.75926	2.4694053	0.8962	7.174822	23.09188
201	7.75847	2.4683824	0.8932	7.175418	23.08191
202	7.75836	2.4708468	0.8964	7.174261	23.10726
203	7.76085	2.4720285	0.8965	7.173357	23.11774
204	7.76503	2.4734931	0.8934	7.172086	23.13000
205	7.76529	2.4768138	0.8903	7.170473	23.16389
206	7.76291	2.4785907	0.8814	7.169956	23.18371
207	7.76164	2.4781549	0.8724	7.170337	23.18008
208	7.76249	2.4775098	0.8725	7.170527	23.17290
209	7.76302	2.4765309	0.8874	7.170920	23.16250
210	7.76344	2.4773004	0.8967	7.170496	23.17011
211	7.76810	2.4744716	0.9088	7.171199	23.13799
212	7.77128	2.4782567	0.9118	7.168965	23.17472
213	7.76593	2.4807304	0.8968	7.168525	23.20365
214	7.75889	2.4824631	0.8908	7.168669	23.22612
215	7.75439	2.4835448	0.8848	7.168773	23.24022
216	7.75238	2.4830521	0.8908	7.169284	23.23650
217	7.75270	2.4817383	0.8877	7.169865	23.22280
218	7.75328	2.4835222	0.8940	7.168937	23.24073
219	7.75460	2.4863716	0.8878	7.167401	23.26910
220	7.75693	2.4873462	0.8880	7.166618	23.27756
221	7.75704	2.4884060	0.8910	7.166101	23.28837
222	7.75661	2.4893356	0.8910	7.165717	23.29820
223	7.75667	2.4893639	0.8910	7.165696	23.29845
224	7.75582	2.4904750	0.8852	7.165284	23.31043
225	7.75407	2.4916430	0.8941	7.164969	23.32359
226	7.75259	2.4922158	0.8852	7.164900	23.33047
227	7.75206	2.4923462	0.8945	7.164911	23.33216
228	7.75143	2.4936393	0.8974	7.164384	23.34587
229	7.75079	2.4949099	0.8944	7.163867	23.35935
230	7.74873	2.4952503	0.8884	7.163988	23.36423
231	7.74629	2.4950575	0.8885	7.164413	23.36387
232	7.74317	2.4954319	0.8885	7.164663	23.36981
233	7.74121	2.4958972	0.8887	7.164710	23.37590
234	7.74074	2.4969356	0.8887	7.164282	23.38690
235	7.74000	2.4971455	0.8856	7.164284	23.38955
236	7.73883	2.4976393	0.8857	7.164208	23.39541
237	7.73809	2.4997451	0.8946	7.163309	23.41755
238	7.73666	2.5019822	0.8919	7.162441	23.44151
239	7.73619	2.5034133	0.8919	7.161825	23.45654
240	7.73814	2.5035156	0.8948	7.161509	23.45628
241	7.74148	2.5039472	0.9010	7.160847	23.45847
242	7.74428	2.5068050	0.8950	7.159105	23.48597
243	7.74597	2.5086293	0.8890	7.158007	23.50359
244	7.74735	2.5095445	0.8860	7.157384	23.51208
245	7.74767	2.5100106	0.8892	7.157119	23.51666
246	7.74640	2.5108749	0.8862	7.156882	23.52640
247	7.74492	2.5112160	0.8921	7.156922	23.53090
248	7.74497	2.5118131	0.8892	7.156631	23.53701
249	7.74582	2.5126263	0.8894	7.156129	23.54480
250	7.74730	2.5127059	0.8894	7.155889	23.54462
251	7.74899	2.5131211	0.8834	7.155460	23.54775
252	7.74867	2.5137525	0.8927	7.155204	23.55446
253	7.74640	2.5133828	0.8986	7.155690	23.55219
254	7.74354	2.5132520	0.9017	7.156143	23.55277
255	7.74148	2.5152715	0.9049	7.155465	23.57493
256	7.74291	2.5159258	0.9080	7.154959	23.58070
257	7.74470	2.5151633	0.9019	7.155075	23.57164
258	7.74545	2.5147992	0.8960	7.155147	23.56740
259	7.74497	2.5162387	0.8899	7.154528	23.58253
260	7.74317	2.5172346	0.8837	7.154300	23.59399
261	7.74211	2.5177582	0.8931	7.154196	23.60009
262	7.74222	2.5175704	0.8931	7.154271	23.59809
263	7.74243	2.5175476	0.8901	7.154253	23.59771
264	7.74253	2.5179175	0.8872	7.154063	23.60145
265	7.74201	2.5179915	0.8843	7.154100	23.60257
266	7.74068	2.5177582	0.8933	7.154391	23.60106
267	7.74005	2.5180485	0.8994	7.154340	23.60447
268	7.74063	2.5189079	0.9056	7.153852	23.61292
269	7.74275	2.5196480	0.9025	7.153212	23.61910
270	7.74502	2.5198529	0.9027	7.152804	23.61967
271	7.74624	2.5198529	0.8996	7.152638	23.61885
272	7.74603	2.5197504	0.8999	7.152715	23.61794
273	7.74486	2.5196195	0.8937	7.152936	23.61738
274	7.74216	2.5194544	0.8998	7.153383	23.61751
275	7.73947	2.5193804	0.8969	7.153786	23.61857
276	7.73851	2.5189137	0.8938	7.154138	23.61442
277	7.73883	2.5191186	0.8820	7.153997	23.61631
278	7.73904	2.5196992	0.8818	7.153692	23.62215
279	7.73788	2.5196480	0.8790	7.153875	23.62241
280	7.73640	2.5191186	0.8851	7.154329	23.61796
281	7.73476	2.5196025	0.8912	7.154323	23.62405
282	7.73412	2.5206444	0.9003	7.153915	23.63520
283	7.73370	2.5211398	0.8972	7.153737	23.64058
284	7.73238	2.5211682	0.9005	7.153904	23.64177
285	7.73063	2.5216409	0.8854	7.153917	23.64782
286	7.73100	2.5219028	0.8885	7.153742	23.65027
287	7.73254	2.5217092	0.8976	7.153625	23.64723
288	7.73412	2.5221135	0.9008	7.153216	23.65032
289	7.73492	2.5243691	0.9039	7.152036	23.67300
290	7.73640	2.5246083	0.8887	7.151720	23.67446
291	7.73830	2.5249217	0.8797	7.151311	23.67640
292	7.73925	2.5248818	0.8767	7.151200	23.67534
293	7.73883	2.5252635	0.8736	7.151076	23.67956
294	7.73793	2.5253945	0.8828	7.151137	23.68151
295	7.73693	2.5261068	0.8981	7.150936	23.68952
296	7.73645	2.5274232	0.9014	7.150375	23.70340
297	7.73719	2.5277082	0.9043	7.150138	23.70583
298	7.73883	2.5266481	0.8983	7.150419	23.69380
299	7.73820	2.5263404	0.8982	7.150651	23.69107
300	7.73571	2.5268704	0.8862	7.150738	23.69821
301	7.73285	2.5272351	0.8773	7.150954	23.70391
302	7.73116	2.5273434	0.8773	7.151133	23.70618
303	7.73047	2.5272637	0.8927	7.151265	23.70582
304	7.73042	2.5280388	0.9047	7.150904	23.71383
305	7.73142	2.5295266	0.9108	7.150060	23.72847
306	7.73285	2.5303703	0.9080	7.149464	23.73618
307	7.73285	2.5314252	0.8988	7.148962	23.74705
308	7.73127	2.5320810	0.8929	7.148867	23.75489
309	7.72963	2.5328396	0.8777	7.148729	23.76382
310	7.72957	2.5331647	0.8750	7.148582	23.76721
311	7.73000	2.5331647	0.8871	7.148524	23.76692
312	7.73053	2.5325601	0.8991	7.148740	23.76032
313	7.73116	2.5317161	0.9145	7.149055	23.75119
314	7.73206	2.5348304	0.9176	7.147452	23.78266
315	7.73529	2.5371756	0.9176	7.145898	23.80461
316	7.73978	2.5385511	0.9178	7.144633	23.81571
317	7.74074	2.5397670	0.8935	7.143925	23.82760
318	7.74111	2.5403494	0.8876	7.143598	23.83334
319	7.74142	2.5404236	0.8938	7.143520	23.83389
320	7.74132	2.5409033	0.8997	7.143307	23.83890
321	7.74100	2.5381572	0.9090	7.144655	23.81083
322	7.74142	2.5374438	0.9090	7.144936	23.80319
323	7.74296	2.5425251	0.9031	7.142313	23.85448
324	7.74793	2.5427078	0.9031	7.141551	23.85297
325	7.75333	2.5423879	0.8910	7.140969	23.84599
326	7.75434	2.5422794	0.8939	7.140884	23.84418
327	7.75307	2.5433132	0.8850	7.140566	23.85570
328	7.75195	2.5443243	0.8912	7.140237	23.86687
329	7.75195	2.5449071	0.8913	7.139960	23.87287
330	7.75185	2.5452213	0.8943	7.139825	23.87618
331	7.75106	2.5449585	0.9035	7.140058	23.87402
332	7.75016	2.5453984	0.9127	7.139972	23.87916
333	7.75010	2.5464955	0.9127	7.139458	23.89050
334	7.75375	2.5470270	0.9070	7.138710	23.89347
335	7.75719	2.5470784	0.9007	7.138218	23.89165
336	7.75857	2.5473184	0.8917	7.137918	23.89318
337	7.75884	2.5476042	0.8889	7.137746	23.89595
338	7.75847	2.5472670	0.8889	7.137956	23.89273
339	7.75857	2.5478500	0.8950	7.137665	23.89866
340	7.76042	2.5489875	0.9012	7.136874	23.90910
341	7.76312	2.5491875	0.9074	7.136414	23.90931
342	7.76482	2.5492847	0.9043	7.136138	23.90915
343	7.76503	2.5500508	0.9014	7.135745	23.91690
344	7.76471	2.5511944	0.9045	7.135246	23.92889
345	7.76466	2.5514688	0.9136	7.135123	23.93175
346	7.76429	2.5521494	0.9106	7.134851	23.93902
347	7.76461	2.5539340	0.9108	7.133961	23.95718
348	7.76709	2.5552670	0.9078	7.132991	23.96920
349	7.77228	2.5552383	0.9048	7.132302	23.96535
350	7.77620	2.5554271	0.8989	7.131682	23.96461
351	7.77779	2.5556617	0.9020	7.131356	23.96593
352	7.77837	2.5545746	0.9020	7.131792	23.95434
353	7.77790	2.5534534	0.9051	7.132388	23.94312
354	7.77626	2.5584889	0.9084	7.130224	23.99610
355	7.77721	2.5597941	0.9114	7.129476	24.00889
356	7.78256	2.5596624	0.9084	7.128815	24.00385
357	7.78595	2.5597139	0.9054	7.128332	24.00206
358	7.78717	2.5600345	0.9055	7.128015	24.00452
359	7.78680	2.5595536	0.9147	7.128293	23.99982
360	7.78563	2.5578248	0.9177	7.129270	23.98282
361	7.78457	2.5590727	0.9299	7.128822	23.99639
362	7.78325	2.5627317	0.9240	7.127268	24.03499
363	7.78552	2.5624110	0.9151	7.127112	24.03012
364	7.79109	2.5613056	0.9059	7.126883	24.01491
365	7.79257	2.5614488	0.8970	7.126615	24.01537
366	7.79183	2.5625713	0.8910	7.126183	24.02744
367	7.79119	2.5630524	0.8941	7.126041	24.03283
368	7.79072	2.5630696	0.9032	7.126098	24.03333
369	7.78992	2.5619585	0.9153	7.126732	24.02244
370	7.78886	2.5621418	0.9245	7.126788	24.02505
371	7.78759	2.5652408	0.9246	7.125492	24.05784
372	7.78923	2.5649486	0.9217	7.125409	24.05370
373	7.79268	2.5641465	0.9065	7.125323	24.04307
374	7.79273	2.5636138	0.9038	7.125568	24.03755
375	7.79146	2.5634992	0.8976	7.125794	24.03725
376	7.79098	2.5634763	0.9007	7.125869	24.03734
377	7.79087	2.5632128	0.9009	7.126008	24.03470
378	7.79019	2.5631212	0.8949	7.126145	24.03423
379	7.78929	2.5638257	0.9011	7.125933	24.04211
380	7.78918	2.5648397	0.9071	7.125467	24.05262
381	7.79087	2.5651606	0.9163	7.125086	24.05475
382	7.79283	2.5648340	0.9224	7.124976	24.05004
383	7.79321	2.5645991	0.9224	7.125037	24.04736
384	7.79310	2.5645475	0.9105	7.125076	24.04691
385	7.79188	2.5643356	0.9106	7.125341	24.04557
386	7.78992	2.5645819	0.9075	7.125489	24.04945
387	7.78844	2.5646793	0.9106	7.125643	24.05148
388	7.78791	2.5649773	0.9077	7.125574	24.05491
389	7.78791	2.5652408	0.9078	7.125449	24.05763
390	7.78785	2.5655101	0.8987	7.125328	24.06044
391	7.78775	2.5661519	0.9020	7.125039	24.06712
392	7.78791	2.5670058	0.8958	7.124613	24.07581
393	7.78913	2.5673840	0.9051	7.124269	24.07886
394	7.79040	2.5671949	0.9051	7.124187	24.07604
395	7.79135	2.5680259	0.9081	7.123665	24.08394
396	7.79310	2.5693845	0.9083	7.122785	24.09673
397	7.79660	2.5704337	0.9085	7.121817	24.10512
398	7.79951	2.5712651	0.9054	7.121030	24.11167
399	7.80121	2.5722572	0.9054	7.120332	24.12072
400	7.80174	2.5726988	0.9026	7.120051	24.12491
401	7.80147	2.5726071	0.9086	7.120130	24.12414
402	7.80174	2.5725268	0.9056	7.120133	24.12313
403	7.80306	2.5725956	0.9119	7.119922	24.12292
404	7.80465	2.5721195	0.9088	7.119932	24.11693
405	7.80587	2.5717467	0.9121	7.119945	24.11224
406	7.80608	2.5717869	0.9090	7.119897	24.11251
407	7.80576	2.5721195	0.9091	7.119782	24.11616
408	7.80502	2.5721482	0.9213	7.119869	24.11696
409	7.80433	2.5712306	0.9184	7.120396	24.10799
410	7.80375	2.5713167	0.9244	7.120434	24.10927
411	7.80370	2.5730602	0.9215	7.119616	24.12727
412	7.80582	2.5732208	0.9095	7.119254	24.12746
413	7.80693	2.5733068	0.9005	7.119063	24.12758
414	7.80614	2.5734100	0.8976	7.119122	24.12919
415	7.80492	2.5726587	0.9127	7.119642	24.12229
416	7.80333	2.5699119	0.9158	7.121156	24.09510
417	7.80147	2.5706228	0.9160	7.121070	24.10370
418	7.79988	2.5731118	0.9252	7.120106	24.13043
419	7.80015	2.5733814	0.9250	7.119943	24.13303
420	7.80232	2.5727390	0.9190	7.119954	24.12491
421	7.80258	2.5721482	0.9163	7.120198	24.11864
422	7.80174	2.5717984	0.9013	7.120477	24.11563
423	7.80046	2.5718099	0.8952	7.120643	24.11663
424	7.79887	2.5719074	0.8953	7.120812	24.11873
425	7.79713	2.5721196	0.9015	7.120947	24.12212
426	7.79580	2.5710013	0.9075	7.121655	24.11152
427	7.79432	2.5686908	0.9166	7.122950	24.08874
428	7.79315	2.5725785	0.9289	7.121266	24.12958
429	7.79326	2.5734560	0.9230	7.120836	24.13855
430	7.79548	2.5725268	0.9111	7.120976	24.12745
431	7.79511	2.5716149	0.9049	7.121458	24.11831
432	7.79368	2.5711562	0.9140	7.121868	24.11457
433	7.79215	2.5706459	0.9143	7.122317	24.11038
434	7.79066	2.5705140	0.9172	7.122580	24.11004
435	7.78950	2.5718788	0.9234	7.122091	24.12490
436	7.78976	2.5723433	0.9144	7.121835	24.12951
437	7.79008	2.5718788	0.8992	7.122012	24.12451
438	7.79003	2.5715576	0.8903	7.122171	24.12124
439	7.78934	2.5713799	0.8904	7.122348	24.11988
440	7.78860	2.5712078	0.8907	7.122529	24.11862
441	7.78759	2.5689087	0.9087	7.123754	24.09563
442	7.78695	2.5688801	0.9148	7.123854	24.09577
443	7.78653	2.5715347	0.9179	7.122654	24.12341
444	7.78812	2.5712881	0.9179	7.122556	24.11977
445	7.78785	2.5702732	0.9241	7.123073	24.10949
446	7.78674	2.5692298	0.9272	7.123717	24.09951
447	7.78478	2.5686107	0.9273	7.124275	24.09449
448	7.78325	2.5685075	0.9183	7.124531	24.09449
449	7.78235	2.5681292	0.9093	7.124832	24.09121
450	7.78171	2.5677623	0.9033	7.125091	24.08787
451	7.78081	2.5677280	0.9064	7.125229	24.08814
452	7.77949	2.5678082	0.9094	7.125370	24.08988
453	7.77816	2.5671606	0.9157	7.125856	24.08412
454	7.77694	2.5648399	0.9157	7.127120	24.06105
455	7.77604	2.5660718	0.9158	7.126658	24.07436
456	7.77641	2.5682381	0.9190	7.125581	24.09642
457	7.77800	2.5680203	0.9068	7.125470	24.09309
458	7.77684	2.5672752	0.9130	7.125980	24.08621
459	7.77546	2.5667938	0.9131	7.126395	24.08220
460	7.77493	2.5667021	0.9192	7.126510	24.08162
461	7.77361	2.5660431	0.9314	7.127001	24.07574
462	7.77250	2.5634764	0.9285	7.128368	24.05006
463	7.77181	2.5651607	0.9194	7.127662	24.06789
464	7.77329	2.5666047	0.9137	7.126777	24.08175
465	7.77313	2.5665761	0.8983	7.126812	24.08157
466	7.77207	2.5664443	0.8924	7.127018	24.08094
467	7.77138	2.5661234	0.8984	7.127263	24.07811
468	7.77080	2.5661750	0.9076	7.127317	24.07904
469	7.77017	2.5650003	0.9199	7.127960	24.06737
470	7.77027	2.5641753	0.9109	7.128337	24.05880
471	7.77181	2.5654644	0.9079	7.127518	24.07102
472	7.77355	2.5653498	0.9172	7.127337	24.06863
473	7.77334	2.5648685	0.9111	7.127593	24.06382
474	7.77186	2.5639290	0.9082	7.128239	24.05517
475	7.77001	2.5630526	0.9144	7.128905	24.04741
476	7.76858	2.5629438	0.9114	7.129150	24.04727
477	7.76725	2.5629151	0.9055	7.129343	24.04789
478	7.76630	2.5625142	0.9054	7.129662	24.04442
479	7.76540	2.5616895	0.9056	7.130175	24.03654
480	7.76381	2.5606989	0.9058	7.130859	24.02742
481	7.76185	2.5597656	0.9177	7.131567	24.01915
482	7.75979	2.5600691	0.9089	7.131703	24.02370
483	7.75794	2.5608879	0.9029	7.131565	24.03342
484	7.75762	2.5607276	0.9030	7.131684	24.03198
485	7.75778	2.5600920	0.8999	7.131964	24.02532
486	7.75714	2.5592103	0.9002	7.132468	24.01668
487	7.75603	2.5584375	0.9002	7.132985	24.00948
488	7.75492	2.5575275	0.9304	7.133568	24.00085
489	7.75428	2.5590100	1.0033	7.132952	24.01654
490	7.75386	2.5608880	1.1213	7.132120	24.03614
491	7.74994	2.5541745	1.3244	7.135840	23.96957
492	7.74058	2.5631332	1.5275	7.132858	24.06830
493	7.74851	2.5852944	1.6970	7.121268	24.29138
494	7.77239	2.6112828	1.8851	7.105742	24.54293
495	7.80772	2.6277702	2.0515	7.093220	24.68823
496	7.83970	2.6368669	2.2153	7.084668	24.75946
497	7.86240	2.6302092	2.3607	7.084788	24.67468
498	7.87594	2.6341416	2.4818	7.081136	24.70562
499	7.88635	2.6378041	2.6395	7.078032	24.73596
500	7.89490	2.6435707	2.7939	7.074186	24.78929
501	7.90180	2.6457199	2.9456	7.072262	24.80650
502	7.90573	2.6461544	3.0939	7.071539	24.80813
503	7.90807	2.6466585	3.2455	7.070995	24.81162
504	7.91025	2.6454244	3.3970	7.071289	24.79730
505	7.91259	2.6442542	3.5424	7.071531	24.78353
506	7.91355	2.6465195	3.7001	7.070343	24.80614
507	7.91535	2.6384061	3.8424	7.073917	24.72123
508	7.91679	2.6473309	4.0092	7.069537	24.81209
509	7.91939	2.6520032	4.1697	7.067001	24.85832
510	7.92258	2.6475917	4.3303	7.068653	24.81055
511	7.92370	2.6469890	4.4786	7.068790	24.80350
512	7.92566	2.6519337	4.6272	7.066211	24.85298
513	7.93093	2.6458591	4.7787	7.068368	24.78663
514	7.93428	2.6521135	4.9394	7.064992	24.84861
515	7.93895	2.6566322	5.1030	7.062256	24.89177
516	7.94576	2.6622104	5.2666	7.058744	24.94433
517	7.95459	2.6647310	5.4242	7.056400	24.96395
518	7.96316	2.7030003	5.6089	7.037356	25.35225
519	7.97523	2.7192682	5.7996	7.028170	25.51129
520	7.98721	2.7325286	5.9876	7.020415	25.63938
521	7.99892	2.7415033	6.1665	7.014705	25.72339
522	8.00915	2.7565614	6.3695	7.006357	25.87132
523	8.01741	2.7646523	6.5573	7.001520	25.94874
524	8.02348	2.7701355	6.7754	6.998184	26.00081
525	8.02849	2.7847376	6.9785	6.990741	26.14794
526	8.03254	2.7849206	7.1844	6.990138	26.14673
527	8.03574	2.7870579	7.3783	6.988735	26.16637
528	8.03872	2.7952998	7.5662	6.984519	26.24928
529	8.04150	2.7987411	7.7691	6.982566	26.28271
530	8.04555	2.8087424	7.9631	6.977398	26.38305
531	8.05275	2.8150162	8.1965	6.973565	26.44245
532	8.06128	2.8237156	8.4235	6.968438	26.52594
533	8.07088	2.8298889	8.6750	6.964352	26.58246
534	8.07734	2.8357878	8.8870	6.960796	26.63853
535	8.07958	2.8420185	9.1357	6.957625	26.70123
536	8.07851	2.8512013	9.3567	6.953504	26.79704
537	8.07403	2.8536670	9.5929	6.952933	26.82591
538	8.06917	2.8600494	9.8112	6.950590	26.89568
539	8.06453	2.8640328	10.0534	6.949333	26.94044
540	8.05963	2.8665087	10.2745	6.948809	26.96979
541	8.05536	2.8707821	10.5138	6.947368	27.01730
542	8.05168	2.8757806	10.7561	6.945517	27.07191
543	8.04869	2.8801846	10.9924	6.943853	27.11983
544	8.04608	2.8826058	11.2289	6.943062	27.14689
545	8.04422	2.8941359	11.4590	6.937947	27.26799
546	8.04235	2.9024936	11.6744	6.934305	27.35620
547	8.04091	2.9141013	11.8984	6.929100	27.47791
548	8.04075	2.9248245	12.1254	6.924147	27.58949
549	8.04128	2.9345089	12.3467	6.919590	27.68977
550	8.04166	2.9433557	12.5649	6.915443	27.78149
551	8.04208	2.9478703	12.7920	6.913299	27.82808
552	8.04219	2.9525141	13.0101	6.911136	27.87628
553	8.04219	2.9598774	13.2252	6.907724	27.95291
554	8.04155	2.9605599	13.4527	6.907491	27.96044
555	8.04059	2.9678340	13.6614	6.904241	28.03695
556	8.03984	2.9677434	13.8676	6.904379	28.03651
557	8.03894	2.9707057	14.0797	6.903121	28.06804
558	8.03787	2.9717398	14.2916	6.902778	28.07959
559	8.03707	2.9744858	14.5067	6.901607	28.10878
560	8.03622	2.9754478	14.7218	6.901271	28.11941
561	8.03579	2.9772873	14.9431	6.900474	28.13885
562	8.03510	2.9799445	15.1550	6.899331	28.16704
563	8.03190	2.9819001	15.3612	6.898824	28.18993
564	8.02972	2.9837109	15.5792	6.898258	28.21050
565	8.02924	2.9894788	15.8093	6.895646	28.27100
566	8.02918	2.9937650	16.0308	6.893669	28.31570
567	8.02828	2.9969797	16.2427	6.892293	28.34991
568	8.02583	2.9982236	16.4637	6.892023	28.36480
569	8.02039	3.0040627	16.7122	6.889988	28.43010
570	8.01155	3.0117051	17.0151	6.887536	28.51704
571	8.00180	3.0129573	17.2242	6.888157	28.53799
572	7.99658	3.0170981	17.4454	6.886880	28.58547
573	7.99514	3.0233953	17.6696	6.884137	28.65245
574	7.99626	3.0261044	17.8908	6.882746	28.67980
575	7.99770	3.0282297	18.1210	6.881587	28.70077
576	7.99924	3.0302946	18.3543	6.880444	28.72102
577	8.00143	3.0317751	18.5784	6.879493	28.73464
578	8.00388	3.0338531	18.8025	6.878233	28.75429
579	8.00622	3.0344139	19.0479	6.877690	28.75813
580	8.00840	3.0346882	19.2629	6.877300	28.75912
581	8.01043	3.0381144	19.4931	6.875467	28.79323
582	8.01086	3.0422254	19.7416	6.873513	28.83581
583	8.00936	3.0452033	19.9627	6.872318	28.86813
584	8.00553	3.0473337	20.1959	6.871803	28.89351
585	7.99765	3.0474925	20.4141	6.872695	28.90158
586	7.98742	3.0478285	20.6444	6.873792	28.91345
587	7.97523	3.0479447	20.8867	6.875232	28.92463
588	7.95975	3.0472795	21.1077	6.877437	28.93036
589	7.94214	3.0463946	21.3412	6.880006	28.93553
590	7.92614	3.0464375	21.5712	6.881948	28.94912
591	7.91163	3.0458762	21.7923	6.883989	28.95514
592	7.89798	3.0456322	22.0287	6.885779	28.96379
593	7.88497	3.0452052	22.2650	6.887577	28.96998
594	7.87323	3.0449674	22.4923	6.889130	28.97711
595	7.86394	3.0452055	22.7135	6.890161	28.98722
596	7.85715	3.0466156	22.9496	6.890339	29.00759
597	7.85370	3.0495341	23.1830	6.889401	29.04106
598	7.85439	3.0514395	23.4039	6.888430	29.06044
599	7.85731	3.0537487	23.6311	6.886997	29.08221
600	7.85864	3.0544758	23.8524	6.886499	29.08867
601	7.85397	3.0547081	24.0916	6.886966	29.09490
602	7.84574	3.0555821	24.3188	6.887568	29.11085
603	7.84012	3.0573179	24.5519	6.887448	29.13371
604	7.84139	3.0595920	24.7824	6.886233	29.15650
605	7.84967	3.0619034	24.9941	6.884144	29.17384
606	7.86214	3.0654146	25.2274	6.880985	29.20028
607	7.87759	3.0700719	25.4579	6.876930	29.23629
608	7.89033	3.0737152	25.6940	6.873681	29.26387
609	7.89729	3.0754670	25.9212	6.872021	29.27638
610	7.90000	3.0761900	26.1305	6.871359	29.28162
611	7.89973	3.0770968	26.3422	6.870972	29.29130
612	7.89718	3.0779425	26.5696	6.870892	29.30223
613	7.89368	3.0791744	26.8482	6.870750	29.31802
614	7.89054	3.0811421	27.1148	6.870218	29.34124
615	7.88937	3.0815100	27.3299	6.870193	29.34600
616	7.88911	3.0851524	27.5571	6.868530	29.38447
617	7.88842	3.0904411	27.7965	6.866152	29.44063
618	7.88576	3.0936393	28.0297	6.864988	29.47645
619	7.88104	3.0956228	28.2568	6.864640	29.50123
620	7.87530	3.0970539	28.4900	6.864672	29.52105
621	7.86994	3.0990505	28.7324	6.864395	29.54652
622	7.86686	3.1004023	28.9655	6.864141	29.56328
623	7.86585	3.1008756	29.1837	6.864047	29.56902
624	7.86628	3.1031189	29.4080	6.862952	29.59222
625	7.86830	3.1043853	29.6233	6.862121	29.60377
626	7.87217	3.1055350	29.8501	6.861120	29.61251
627	7.87631	3.1073367	30.0620	6.859782	29.62791
628	7.88136	3.1086837	30.2744	6.858548	29.63774
629	7.88624	3.1096679	30.4953	6.857503	29.64387
630	7.89044	3.1111753	30.7014	6.856297	29.65611
631	7.89676	3.1135814	30.9284	6.854417	29.67601
632	7.90478	3.1149293	31.1468	6.852824	29.68331
633	7.90419	3.1152557	31.3739	6.852747	29.68715
634	7.88603	3.1127693	31.6102	6.856104	29.67627
635	7.84734	3.1101978	31.8493	6.861987	29.68190
636	7.80084	3.1083406	32.0797	6.868490	29.70173
637	7.75121	3.1062256	32.3035	6.875503	29.72152
638	7.70572	3.1043263	32.5157	6.881925	29.74011
639	7.66551	3.1026179	32.7338	6.887625	29.75624
640	7.63537	3.1025814	32.9703	6.891317	29.78152
641	7.61706	3.1039155	33.1851	6.892920	29.81127
642	7.60936	3.1065717	33.4306	6.892605	29.84597
643	7.60372	3.1072545	33.6455	6.892974	29.85797
644	7.59069	3.1060371	33.8759	6.895140	29.85611
645	7.57093	3.1055393	34.1000	6.897789	29.86769
646	7.53970	3.1024905	34.3119	6.903050	29.86199
647	7.48650	3.0954382	34.5484	6.912911	29.83249
648	7.42083	3.0925348	34.7725	6.922347	29.85789
649	7.36014	3.0915349	35.0116	6.930280	29.89940
650	7.31299	3.0921799	35.2116	6.935769	29.94694
651	7.27881	3.0921804	35.4208	6.939977	29.97643
652	7.25476	3.0928989	35.6328	6.942595	30.00489
653	7.23923	3.0935622	35.8298	6.944191	30.02539
654	7.23238	3.0947412	36.0416	6.944468	30.04390
655	7.23228	3.0966205	36.2598	6.943578	30.06406
656	7.23683	3.0977384	36.4809	6.942483	30.07201
657	7.24122	3.0990592	36.7535	6.941310	30.08225
658	7.24399	3.1003496	37.0320	6.940352	30.09357
659	7.24561	3.1016524	37.2501	6.939529	30.10604
660	7.24718	3.1026788	37.4865	6.938845	30.11559
661	7.24754	3.1042771	37.7196	6.938034	30.13232
662	7.24681	3.1050396	37.9498	6.937760	30.14104
663	7.23996	3.1038901	38.1770	6.939161	30.13457
664	7.22371	3.1020586	38.4133	6.942047	30.12896
665	7.20689	3.1014750	38.6374	6.944403	30.13725
666	7.19556	3.1023110	38.8737	6.945397	30.15601
667	7.19488	3.1049851	39.1161	6.944191	30.18524
668	7.20198	3.1074017	39.3432	6.942154	30.20491
669	7.21306	3.1097636	39.5643	6.939656	30.22052
670	7.22831	3.1127784	39.7852	6.936332	30.23948
671	7.24357	3.1169826	40.0217	6.932436	30.27119
672	7.25209	3.1200063	40.2610	6.929939	30.29610
673	7.25031	3.1212199	40.5033	6.929576	30.31058
674	7.23954	3.1217561	40.7516	6.930640	30.32567
675	7.22361	3.1224402	41.0030	6.932266	30.34689
676	7.20731	3.1228163	41.2484	6.934085	30.36513
677	7.19374	3.1234758	41.4878	6.935433	30.38405
678	7.18408	3.1240121	41.7360	6.936362	30.39820
679	7.17823	3.1250784	41.9633	6.936566	30.41472
680	7.17526	3.1262681	42.2026	6.936359	30.43004
681	7.17406	3.1279943	42.4476	6.935675	30.44958
682	7.17442	3.1291536	42.6840	6.935074	30.46163
683	7.17348	3.1296593	42.9202	6.934949	30.46780
684	7.17442	3.1320154	43.1686	6.933698	30.49223
685	7.18105	3.1340944	43.4079	6.931886	30.50867
686	7.18919	3.1356186	43.6499	6.930159	30.51778
687	7.19739	3.1376800	43.8805	6.928165	30.53263
688	7.21175	3.1412609	44.1287	6.924687	30.55837
689	7.23860	3.1461901	44.3649	6.919040	30.58756
690	7.27008	3.1500836	44.5951	6.913339	30.60149
691	7.29980	3.1533852	44.8466	6.908145	30.61057
692	7.32257	3.1542014	45.0768	6.904993	30.59910
693	7.33435	3.1545848	45.3072	6.903384	30.59270
694	7.33881	3.1555189	45.5461	6.902401	30.59868
695	7.34006	3.1558777	45.7793	6.902081	30.60132
696	7.33975	3.1572018	46.0398	6.901489	30.61569
697	7.33771	3.1584828	46.2821	6.901127	30.63113
698	7.33194	3.1587614	46.5155	6.901697	30.63911
699	7.32409	3.1590957	46.7698	6.902494	30.64954
700	7.31362	3.1588545	47.0331	6.903884	30.65610
701	7.30095	3.1583720	47.2725	6.905657	30.66203
702	7.28671	3.1580072	47.5058	6.907564	30.67061
703	7.27410	3.1584034	47.7571	6.908909	30.68594
704	7.26270	3.1588244	47.9965	6.910095	30.70047
705	7.25167	3.1591835	48.2267	6.911266	30.71402
706	7.24163	3.1594870	48.4719	6.912343	30.72609
707	7.23218	3.1595614	48.7022	6.913460	30.73519
708	7.22079	3.1595740	48.9535	6.914843	30.74534
709	7.20590	3.1608678	49.2018	6.916031	30.77241
710	7.19024	3.1618957	49.4349	6.917443	30.79733
711	7.17745	3.1624035	49.6773	6.918756	30.81409
712	7.16759	3.1628681	49.9165	6.919734	30.82779
713	7.16018	3.1632459	50.1500	6.920457	30.83838
714	7.15470	3.1633699	50.3771	6.921067	30.84450
715	7.15006	3.1635186	50.6073	6.921564	30.85015
716	7.14537	3.1636983	50.8524	6.922052	30.85617
717	7.14099	3.1637232	51.0916	6.922578	30.86024
718	7.13651	3.1638533	51.3401	6.923065	30.86554
719	7.13046	3.1643055	51.5764	6.923586	30.87573
720	7.12389	3.1645162	51.8003	6.924287	30.88377
721	7.11785	3.1648445	52.0397	6.924868	30.89262
722	7.11316	3.1649995	52.2879	6.925368	30.89838
723	7.10962	3.1650306	52.5182	6.925788	30.90178
724	7.10597	3.1649997	52.7604	6.926252	30.90461
725	7.09836	3.1645168	52.9906	6.927416	30.90609
726	7.08831	3.1641269	53.2299	6.928834	30.91077
727	7.07889	3.1638546	53.4721	6.930119	30.91616
728	7.06817	3.1636628	53.7237	6.931523	30.92359
729	7.05453	3.1634896	53.9567	6.933273	30.93383
730	7.04122	3.1634651	54.2021	6.934912	30.94541
731	7.02624	3.1634653	54.4505	6.936743	30.95874
732	7.01153	3.1636761	54.6897	6.938439	30.97414
733	6.99947	3.1638558	54.9198	6.939826	30.98682
734	6.99038	3.1642028	55.1379	6.940770	30.99866
735	6.98389	3.1645806	55.3406	6.941382	31.00851
736	6.98031	3.1654230	55.5892	6.941413	31.02076
737	6.97620	3.1658443	55.8163	6.941712	31.02892
738	6.97096	3.1658444	56.0495	6.942356	31.03355
739	6.96546	3.1657950	56.2828	6.943057	31.03786
740	6.96011	3.1656341	56.5099	6.943793	31.04083
741	6.95429	3.1646371	56.7975	6.944996	31.03512
742	6.94729	3.1643400	57.0731	6.946003	31.03809
743	6.93982	3.1644888	57.3062	6.946847	31.04634
744	6.93292	3.1643403	57.5366	6.947767	31.05084
745	6.92695	3.1641113	57.7638	6.948613	31.05363
746	6.92187	3.1640681	58.0030	6.949260	31.05764
747	6.91762	3.1639196	58.2453	6.949858	31.05976
748	6.91539	3.1643098	58.4935	6.949944	31.06590
749	6.91829	3.1659635	58.7297	6.948783	31.08113
750	6.92545	3.1672581	58.9540	6.947279	31.08863
751	6.93328	3.1686830	59.1933	6.945629	31.09692
752	6.94335	3.1708828	59.4385	6.943329	31.11161
753	6.95341	3.1727856	59.6623	6.941175	31.12307
754	6.96047	3.1737217	59.8896	6.939861	31.12674
755	6.96333	3.1742053	60.1197	6.939281	31.12931
756	6.96203	3.1743046	60.3621	6.939396	31.13145
757	6.95751	3.1743295	60.6045	6.939939	31.13569
758	6.94968	3.1746025	60.8437	6.940765	31.14563
759	6.93847	3.1750553	61.0738	6.941914	31.16059
760	6.92540	3.1752043	61.3011	6.943439	31.17395
761	6.91305	3.1753905	61.5281	6.944856	31.18705
762	6.90217	3.1754465	61.7401	6.946161	31.19743
763	6.89263	3.1752297	61.9732	6.947435	31.20362
764	6.88398	3.1753290	62.2156	6.948447	31.21244
765	6.87683	3.1753292	62.4548	6.949324	31.21882
766	6.87097	3.1754161	62.6942	6.950001	31.22498
767	6.86450	3.1759310	62.9333	6.950543	31.23635
768	6.85554	3.1765389	63.1516	6.951341	31.25101
769	6.84612	3.1771468	63.3786	6.952197	31.26610
770	6.83727	3.1775688	63.5995	6.953074	31.27865
771	6.82826	3.1776868	63.8327	6.954120	31.28803
772	6.81994	3.1778420	64.0541	6.955065	31.29721
773	6.81254	3.1778111	64.2658	6.955988	31.30351
774	6.80499	3.1772965	64.4960	6.957169	31.30468
775	6.79604	3.1768439	64.7112	6.958490	31.30780
776	6.78555	3.1766394	64.9229	6.959878	31.31504
777	6.77485	3.1759016	65.1563	6.961555	31.31664
778	6.76240	3.1750274	65.3895	6.963515	31.31835
779	6.74489	3.1742092	65.6195	6.966067	31.32529
780	6.72496	3.1735462	65.8558	6.968841	31.33614
781	6.70324	3.1727034	66.0860	6.971925	31.34667
782	6.67678	3.1707079	66.3677	6.976166	31.34890
783	6.64385	3.1689237	66.6582	6.981101	31.35937
784	6.60843	3.1693826	66.8854	6.985230	31.39676
785	6.58069	3.1687448	67.1186	6.988963	31.41510
786	6.55889	3.1682308	67.3519	6.991908	31.42938
787	6.53946	3.1678408	67.5818	6.994499	31.44285
788	6.52241	3.1674879	67.8182	6.996782	31.45455
789	6.50782	3.1672404	68.0393	6.998707	31.46515
790	6.49494	3.1668503	68.2847	7.000497	31.47261
791	6.48288	3.1667885	68.5208	7.002020	31.48294
792	6.47210	3.1666958	68.7479	7.003400	31.49174
793	6.46369	3.1665349	68.9872	7.004524	31.49762
794	6.45677	3.1665475	69.2293	7.005377	31.50403
795	6.45138	3.1664237	69.4565	7.006109	31.50753
796	6.44708	3.1663061	69.6899	7.006704	31.51010
797	6.44385	3.1663062	69.9292	7.007108	31.51297
798	6.44087	3.1662444	70.1592	7.007511	31.51492
799	6.43826	3.1661578	70.3952	7.007883	31.51627
800	6.43595	3.1660340	70.6315	7.008235	31.51692
801	6.43390	3.1659721	70.8558	7.008524	31.51803
802	6.43165	3.1661828	71.0857	7.008701	31.52233
803	6.42914	3.1658237	71.3130	7.009197	31.52058
804	6.42683	3.1661892	71.5461	7.009303	31.52663
805	6.42524	3.1669078	71.7823	7.009142	31.53591
806	6.42427	3.1676947	72.0247	7.008871	31.54537
807	6.42483	3.1688719	72.2700	7.008214	31.55771
808	6.42734	3.1703219	72.5122	7.007179	31.57126
809	6.43129	3.1714375	72.7391	7.006135	31.57980
810	6.43600	3.1723053	72.9543	7.005122	31.58490
811	6.44241	3.1736443	73.1785	7.003663	31.59362
812	6.45708	3.1782704	73.4174	6.999535	31.63091
813	6.47944	3.1818750	73.6478	6.994979	31.64979
814	6.49704	3.1827251	73.8869	6.992394	31.64273
815	6.50567	3.1829671	74.1263	6.991218	31.63730
816	6.51214	3.1837864	74.3535	6.990018	31.64022
817	6.52005	3.1850900	74.5775	6.988399	31.64713
818	6.53042	3.1872445	74.8045	6.986052	31.66112
819	6.54424	3.1892814	75.0346	6.983343	31.67061
820	6.55828	3.1905299	75.2590	6.981005	31.67123
821	6.56912	3.1915301	75.4859	6.979182	31.67208
822	6.57637	3.1919588	75.7040	6.978085	31.66997
823	6.57961	3.1919588	75.9374	6.977693	31.66686
824	6.57936	3.1915302	76.1946	6.977944	31.66227
825	6.57658	3.1915365	76.4609	6.978286	31.66478
826	6.57308	3.1919902	76.6730	6.978493	31.67291
827	6.57061	3.1925060	76.8971	6.978542	31.68075
828	6.56717	3.1929908	77.1274	6.978726	31.68916
829	6.55925	3.1926305	77.3666	6.979881	31.69243
830	6.54897	3.1925064	77.5935	6.981206	31.70049
831	6.53726	3.1919288	77.8085	6.982935	31.70489
832	6.52359	3.1907423	78.0268	6.985208	31.70441
833	6.50767	3.1894381	78.2478	6.987818	31.70472
834	6.49422	3.1890346	78.4810	6.989675	31.71265
835	6.48401	3.1890410	78.7112	6.990930	31.72209
836	6.47559	3.1887057	78.9382	6.992136	31.72611
837	6.46769	3.1884326	79.1685	6.993248	31.73033
838	6.46123	3.1884638	79.3955	6.994031	31.73657
839	6.45528	3.1882838	79.6166	6.994857	31.74001
840	6.44959	3.1879175	79.8525	6.995745	31.74116
841	6.44318	3.1877065	80.0647	6.996643	31.74469
842	6.43677	3.1873030	80.3069	6.997639	31.74608
843	6.43047	3.1869740	80.5402	6.998584	31.74821
844	6.42468	3.1868872	80.7643	6.999344	31.75253
845	6.41914	3.1865210	80.9852	7.000214	31.75353
846	6.41336	3.1863970	81.2091	7.000993	31.75745
847	6.40757	3.1860991	81.4212	7.001860	31.75945
848	6.40204	3.1852797	81.6636	7.002959	31.75543
849	6.39676	3.1848514	81.9088	7.003829	31.75550
850	6.39205	3.1848391	82.1209	7.004420	31.75965
851	6.38857	3.1847337	82.3541	7.004906	31.76162
852	6.38642	3.1852180	82.5752	7.004932	31.76886
853	6.38657	3.1859445	82.7840	7.004551	31.77665
854	6.38662	3.1859135	82.9899	7.004565	31.77616
855	6.38294	3.1850320	83.2292	7.005468	31.76974
856	6.37035	3.1832755	83.4412	7.007910	31.76197
857	6.35213	3.1813457	83.6442	7.011134	31.75751
858	6.33101	3.1789138	83.8744	7.014975	31.75019
859	6.30970	3.1777914	84.0863	7.018179	31.75754
860	6.29141	3.1773698	84.2922	7.020657	31.76984
861	6.27700	3.1764894	84.5224	7.022889	31.77342
862	6.26582	3.1765206	84.7525	7.024260	31.78409
863	6.25822	3.1767316	84.9612	7.025098	31.79343
864	6.25214	3.1765518	85.1823	7.025946	31.79701
865	6.24663	3.1766140	85.3975	7.026601	31.80275
866	6.24296	3.1770358	85.6578	7.026846	31.81073
867	6.24163	3.1778857	85.9456	7.026584	31.82126
868	6.24199	3.1786115	86.1814	7.026176	31.82886
869	6.24209	3.1790644	86.3938	7.025938	31.83368
870	6.24163	3.1787915	86.6117	7.026138	31.83098
871	6.24112	3.1791886	86.8268	7.026004	31.83576
872	6.24005	3.1793376	87.0446	7.026066	31.83831
873	6.23725	3.1788538	87.2839	7.026664	31.83546
874	6.23235	3.1784569	87.5140	7.027477	31.83553
875	6.22475	3.1781593	87.7290	7.028573	31.83924
876	6.21628	3.1775516	87.9504	7.029935	31.84031
877	6.20675	3.1769687	88.1591	7.031416	31.84267
878	6.19727	3.1764294	88.3831	7.032870	31.84546
879	6.18856	3.1758900	88.6103	7.034230	31.84752
880	6.18000	3.1754933	88.8192	7.035497	31.85104
881	6.17195	3.1751896	89.0281	7.036654	31.85511
882	6.16421	3.1748611	89.2490	7.037787	31.85861
883	6.15458	3.1741606	89.4611	7.039343	31.85975
884	6.14176	3.1729271	89.6942	7.041570	31.85795
885	6.12669	3.1720471	89.9062	7.043895	31.86220
886	6.11413	3.1722023	90.1184	7.045380	31.87561
887	6.10579	3.1725929	90.3422	7.046221	31.88768
888	6.09908	3.1728348	90.5573	7.046936	31.89658
889	6.09308	3.1728040	90.7694	7.047701	31.90177
890	6.08743	3.1723764	90.9934	7.048627	31.90221
891	6.08255	3.1723207	91.2204	7.049267	31.90607
892	6.07747	3.1722898	91.4417	7.049919	31.91039
893	6.07153	3.1720792	91.6658	7.050771	31.91353
894	6.06431	3.1715339	91.8898	7.051953	31.91414
895	6.05755	3.1713233	92.1167	7.052907	31.91804
896	6.05105	3.1711003	92.3410	7.053835	31.92156
897	6.04410	3.1707224	92.5619	7.054900	31.92379
898	6.03704	3.1703879	92.7830	7.055955	31.92660
899	6.03044	3.1700596	93.0041	7.056950	31.92904
900	6.02323	3.1694525	93.2370	7.058165	31.92895
901	6.01379	3.1690313	93.4461	7.059562	31.93304
902	6.00187	3.1687898	93.6518	7.061177	31.94148
903	5.99101	3.1679474	93.8730	7.062969	31.94220
904	5.98102	3.1669192	94.1001	7.064750	31.94003
905	5.96987	3.1661389	94.3274	7.066549	31.94172
906	5.95705	3.1655074	94.5694	7.068480	31.94664
907	5.94301	3.1648015	94.7906	7.070602	31.95189
908	5.92995	3.1636066	95.0358	7.072858	31.95074
909	5.91714	3.1622818	95.3173	7.075151	31.94788
910	5.90478	3.1620096	95.5567	7.076842	31.95638
911	5.89492	3.1621645	95.7836	7.078001	31.96733
912	5.88672	3.1617189	96.0079	7.079262	31.96998
913	5.87868	3.1607782	96.2318	7.080762	31.96694
914	5.86770	3.1593052	96.4589	7.082906	31.96070
915	5.85633	3.1581606	96.6890	7.084931	31.95852
916	5.84445	3.1573502	96.9313	7.086846	31.96055
917	5.82994	3.1561006	97.1554	7.089320	31.96015
918	5.81348	3.1548575	97.3794	7.092038	31.96168
919	5.79762	3.1534166	97.6187	7.094785	31.96040
920	5.78233	3.1524583	97.8487	7.097211	31.96401
921	5.76734	3.1515557	98.0759	7.099571	31.96795
922	5.75266	3.1512839	98.2939	7.101564	31.97869
923	5.73955	3.1509564	98.5121	7.103390	31.98733
924	5.72786	3.1503260	98.7329	7.105196	31.99122
925	5.71768	3.1499985	98.9661	7.106655	31.99708
926	5.70982	3.1498812	99.2086	7.107711	32.00310
927	5.70408	3.1497700	99.4506	7.108498	32.00718
928	5.69980	3.1499123	99.6686	7.108968	32.01274
929	5.69672	3.1497888	99.9016	7.109425	32.01415
930	5.69415	3.1495231	100.1413	7.109893	32.01349
931	5.69234	3.1492945	100.3862	7.110247	32.01252
932	5.69083	3.1495233	100.6133	7.110323	32.01641
933	5.68887	3.1495790	100.8374	7.110546	32.01880
934	5.68635	3.1495482	101.0644	7.110885	32.02073
935	5.68428	3.1494926	101.2916	7.111179	32.02196
936	5.68262	3.1494185	101.5400	7.111433	32.02258
937	5.68091	3.1494001	101.7730	7.111664	32.02388
938	5.67960	3.1494929	102.0063	7.111785	32.02606
939	5.67719	3.1493693	102.2421	7.112160	32.02685
940	5.67296	3.1489491	102.4846	7.112919	32.02602
941	5.66697	3.1482941	102.7236	7.114024	32.02422
942	5.65851	3.1477813	102.9540	7.115365	32.02636
943	5.64951	3.1475157	103.1809	7.116646	32.03182
944	5.64136	3.1472748	103.3961	7.117806	32.03675
945	5.63437	3.1470525	103.6292	7.118810	32.04078
946	5.62934	3.1470341	103.8714	7.119460	32.04523
947	5.62728	3.1477572	104.1045	7.119345	32.05523
948	5.62848	3.1490429	104.3406	7.118522	32.06846
949	5.62974	3.1495189	104.5617	7.118118	32.07253
950	5.62607	3.1487711	104.8069	7.118980	32.06747
951	5.61923	3.1468862	105.0915	7.120842	32.05259
952	5.60873	3.1463179	105.3491	7.122474	32.05605
953	5.59772	3.1464355	105.5819	7.123808	32.06774
954	5.58817	3.1462935	105.8121	7.125094	32.07512
955	5.58009	3.1457808	106.0361	7.126392	32.07693
956	5.57220	3.1454782	106.2543	7.127554	32.08093
957	5.56372	3.1449409	106.5116	7.128917	32.08282
958	5.55518	3.1446507	106.7508	7.130155	32.08757
959	5.54725	3.1444964	106.9930	7.131246	32.09327
960	5.54048	3.1444347	107.2353	7.132141	32.09892
961	5.53435	3.1444349	107.4714	7.132922	32.10465
962	5.52929	3.1443670	107.7015	7.133604	32.10860
963	5.52482	3.1443733	107.9405	7.134172	32.11282
964	5.52106	3.1443178	108.1739	7.134683	32.11567
965	5.51755	3.1441635	108.4071	7.135215	32.11717
966	5.51359	3.1438980	108.6402	7.135862	32.11783
967	5.50927	3.1435769	108.8914	7.136584	32.11820
968	5.50546	3.1434473	109.1307	7.137141	32.12026
969	5.50210	3.1432991	109.3759	7.137651	32.12167
970	5.49910	3.1432066	109.6272	7.138087	32.12337
971	5.49604	3.1433611	109.8756	7.138398	32.12792
972	5.49073	3.1433859	110.1117	7.139064	32.13317
973	5.48336	3.1433861	110.3449	7.140003	32.14010
974	5.47474	3.1433862	110.5720	7.141101	32.14823
975	5.46502	3.1433926	110.8110	7.142336	32.15749
976	5.45530	3.1432692	111.0653	7.143639	32.16527
977	5.44644	3.1433312	111.3137	7.144737	32.17434
978	5.43963	3.1433869	111.5467	7.145576	32.18138
979	5.43468	3.1433253	111.7887	7.146243	32.18531
980	5.43062	3.1433007	112.0221	7.146776	32.18880
981	5.42727	3.1432081	112.2732	7.147257	32.19085
982	5.42311	3.1431526	112.5248	7.147820	32.19408
983	5.41686	3.1432022	112.7608	7.148593	32.20052
984	5.40885	3.1432394	113.0120	7.149595	32.20850
985	5.40175	3.1433631	113.2485	7.150437	32.21660
986	5.39495	3.1435115	113.4785	7.151227	32.22470
987	5.38840	3.1434190	113.7085	7.152114	32.22983
988	5.38285	3.1431411	113.9659	7.152973	32.23188
989	5.37875	3.1431845	114.2141	7.153476	32.23619
990	5.37425	3.1431846	114.4594	7.154054	32.24040
991	5.36955	3.1433330	114.7014	7.154577	32.24648
992	5.36440	3.1433269	114.9500	7.155240	32.25124
993	5.35846	3.1432715	115.2404	7.156033	32.25618
994	5.35301	3.1435125	115.5190	7.156603	32.26402
995	5.34871	3.1440810	115.7550	7.156850	32.27450
996	5.34507	3.1441181	115.9882	7.157300	32.27832
997	5.34222	3.1439576	116.2273	7.157753	32.27911
998	5.34062	3.1438712	116.4728	7.158008	32.27955
999	5.33932	3.1439331	116.7270	7.158146	32.28138
1000	5.33782	3.1439332	116.9691	7.158342	32.28270
1001	5.33663	3.1441124	117.2056	7.158404	32.28578
1002	5.33533	3.1441125	117.4506	7.158575	32.28691
1003	5.33423	3.1440508	117.7049	7.158754	32.28714
1004	5.33328	3.1441374	117.9502	7.158834	32.28892
1005	5.33233	3.1441807	118.1923	7.158937	32.29020
1006	5.33073	3.1443785	118.4376	7.159040	32.29387
1007	5.32849	3.1446504	118.6798	7.159186	32.29901
1008	5.32529	3.1447370	118.9159	7.159551	32.30295
1009	5.32155	3.1447186	119.1584	7.160043	32.30623
1010	5.31920	3.1448299	119.3975	7.160288	32.30964
1011	5.31765	3.1448300	119.6517	7.160490	32.31101
1012	5.31635	3.1447992	119.8970	7.160677	32.31179
1013	5.31511	3.1448796	120.1362	7.160799	32.31379
1014	5.31376	3.1448302	120.3785	7.161002	32.31441
1015	5.31271	3.1447377	120.6358	7.161191	32.31424
1016	5.31151	3.1447377	120.8841	7.161349	32.31527
1017	5.31076	3.1448614	121.1294	7.161384	32.31728
1018	5.30976	3.1448182	121.3744	7.161540	32.31763
1019	5.30927	3.1448615	121.6226	7.161586	32.31848
1020	5.30907	3.1447998	121.8619	7.161650	32.31785
1021	5.30857	3.1448308	122.1071	7.161703	32.31856
1022	5.30807	3.1448185	122.3403	7.161778	32.31879
1023	5.30742	3.1447692	122.5766	7.161893	32.31874
1024	5.30667	3.1447384	122.8186	7.162010	32.31899
1025	5.30517	3.1449794	123.0668	7.162077	32.32305
1026	5.30283	3.1451031	123.3122	7.162315	32.32660
1027	5.30023	3.1452206	123.5512	7.162588	32.33032
1028	5.29809	3.1453998	123.7844	7.162770	32.33432
1029	5.29569	3.1455482	124.0024	7.163000	32.33821
1030	5.29305	3.1456101	124.2385	7.163309	32.34135
1031	5.29030	3.1458882	124.4810	7.163515	32.34705
1032	5.28656	3.1466546	124.7260	7.163586	32.35926
1033	5.28113	3.1472541	124.9591	7.163962	32.37123
1034	5.27559	3.1475818	125.1986	7.164496	32.38019
1035	5.27105	3.1476005	125.4826	7.165070	32.38465
1036	5.26721	3.1477675	125.7855	7.165476	32.39012
1037	5.26307	3.1482126	126.0458	7.165770	32.39906
1038	5.25988	3.1487813	126.2853	7.165876	32.40851
1039	5.25774	3.1488618	126.5122	7.166111	32.41139
1040	5.25644	3.1490226	126.7482	7.166195	32.41436
1041	5.25609	3.1491463	126.9904	7.166179	32.41599
1042	5.25599	3.1493503	127.2207	7.166087	32.41830
1043	5.25545	3.1495358	127.4477	7.166063	32.42083
1044	5.25525	3.1497152	127.6747	7.165997	32.42295
1045	5.25495	3.1502840	127.9080	7.165735	32.42961
1046	5.25440	3.1507601	128.1530	7.165555	32.43545
1047	5.25355	3.1510322	128.3983	7.165522	32.43925
1048	5.25260	3.1511807	128.6313	7.165568	32.44174
1049	5.25131	3.1512364	128.8617	7.165709	32.44352
1050	5.25021	3.1512736	129.1009	7.165834	32.44489
1051	5.24892	3.1512737	129.3339	7.166004	32.44603
1052	5.24777	3.1513604	129.5700	7.166109	32.44801
1053	5.24637	3.1514594	129.7909	7.166238	32.45038
1054	5.24538	3.1516635	130.0329	7.166261	32.45355
1055	5.24453	3.1518738	130.2815	7.166262	32.45665
1056	5.24353	3.1521150	130.5116	7.166264	32.46025
1057	5.24284	3.1523501	130.7476	7.166232	32.46349
1058	5.24174	3.1524739	130.9869	7.166311	32.46585
1059	5.24104	3.1525049	131.2320	7.166389	32.46676
1060	5.24059	3.1525297	131.4743	7.166438	32.46735
1061	5.24034	3.1525916	131.7103	7.166442	32.46818
1062	5.24009	3.1527153	131.9313	7.166412	32.46973
1063	5.23980	3.1527587	132.1586	7.166432	32.47040
1064	5.23915	3.1528021	132.3886	7.166497	32.47141
1065	5.23875	3.1528640	132.6307	7.166520	32.47238
1066	5.23825	3.1529506	132.8670	7.166542	32.47373
1067	5.23790	3.1529507	133.0967	7.166592	32.47396
1068	5.23765	3.1529508	133.3271	7.166629	32.47409
1069	5.23725	3.1529818	133.5603	7.166669	32.47471
1070	5.23701	3.1531055	133.7963	7.166639	32.47625
1071	5.23651	3.1531365	134.0174	7.166691	32.47697
1072	5.23606	3.1530748	134.2504	7.166787	32.47659
1073	5.23551	3.1533160	134.4957	7.166733	32.47975
1074	5.23441	3.1536748	134.7289	7.166685	32.48479
1075	5.23237	3.1540027	134.9528	7.166773	32.49040
1076	5.23038	3.1543059	135.1740	7.166869	32.49568
1077	5.22868	3.1546585	135.4188	7.166901	32.50123
1078	5.22893	3.1553885	135.7157	7.166483	32.50917
1079	5.23073	3.1558959	135.9973	7.165989	32.51307
1080	5.23252	3.1566445	136.2425	7.165365	32.51975
1081	5.23511	3.1571890	136.4635	7.164748	32.52333
1082	5.23730	3.1575108	136.6906	7.164302	32.52476
1083	5.23875	3.1577584	136.9266	7.163991	32.52606
1084	5.23965	3.1579688	137.1598	7.163769	32.52748
1085	5.23990	3.1581793	137.3900	7.163630	32.52952
1086	5.23900	3.1581793	137.6199	7.163749	32.53028
1087	5.23676	3.1582413	137.8473	7.164006	32.53305
1088	5.23481	3.1583033	138.0894	7.164225	32.53553
1089	5.23362	3.1585138	138.3225	7.164269	32.53897
1090	5.23257	3.1588109	138.5615	7.164248	32.54326
1091	5.23162	3.1590214	138.7976	7.164261	32.54647
1092	5.23063	3.1591948	139.0308	7.164300	32.54930
1093	5.22928	3.1594115	139.2548	7.164359	32.55297
1094	5.22809	3.1595353	139.4820	7.164450	32.55543
1095	5.22684	3.1596221	139.7121	7.164567	32.55752
1096	5.22604	3.1596221	139.9483	7.164674	32.55817
1097	5.22520	3.1597027	140.1783	7.164743	32.55980
1098	5.22435	3.1597770	140.4202	7.164817	32.56135
1099	5.22355	3.1598328	140.6384	7.164893	32.56266
1100	5.22281	3.1600743	140.8805	7.164864	32.56602
1101	5.22216	3.1602848	141.1138	7.164838	32.56894
1102	5.22151	3.1604025	141.3497	7.164863	32.57079
1103	5.22111	3.1607368	141.5832	7.164739	32.57488
1104	5.22081	3.1610402	141.8159	7.164619	32.57852
1105	5.22086	3.1613684	142.0404	7.164442	32.58210
1106	5.22096	3.1616099	142.2608	7.164305	32.58465
1107	5.22071	3.1618018	142.4911	7.164238	32.58697
1108	5.22057	3.1619443	142.7303	7.164186	32.58862
1109	5.22057	3.1620930	142.9695	7.164112	32.59020
1110	5.22101	3.1622416	143.2025	7.163981	32.59134
1111	5.22116	3.1624212	143.4267	7.163870	32.59314
1112	5.22126	3.1625327	143.6627	7.163803	32.59419
1113	5.22156	3.1626381	143.8956	7.163714	32.59499
1114	5.22161	3.1627558	144.1230	7.163650	32.59617
1115	5.22136	3.1627558	144.3650	7.163687	32.59629
1116	5.22136	3.1628178	144.5950	7.163659	32.59689
1117	5.22146	3.1628489	144.8314	7.163635	32.59703
1118	5.22141	3.1628489	145.0646	7.163647	32.59696
1119	5.22121	3.1629976	145.3034	7.163598	32.59873
1120	5.22131	3.1629667	145.5849	7.163609	32.59814
1121	5.22136	3.1630597	145.8485	7.163559	32.59902
1122	5.22136	3.1632084	146.0874	7.163484	32.60060
1123	5.22116	3.1634561	146.3297	7.163382	32.60350
1124	5.22101	3.1638091	146.5539	7.163216	32.60756
1125	5.22062	3.1642303	146.7900	7.163046	32.61264
1126	5.22091	3.1648063	147.0110	7.162704	32.61882
1127	5.22221	3.1653452	147.2499	7.162255	32.62359
1128	5.22360	3.1657788	147.4919	7.161851	32.62706
1129	5.22515	3.1660699	147.7315	7.161504	32.62875
1130	5.22669	3.1663425	147.9617	7.161167	32.63024
1131	5.22819	3.1666151	148.1882	7.160836	32.63179
1132	5.22933	3.1667639	148.4278	7.160617	32.63225
1133	5.23038	3.1668568	148.6606	7.160439	32.63217
1134	5.23123	3.1671171	148.9031	7.160198	32.63420
1135	5.23192	3.1675198	149.1361	7.159898	32.63800
1136	5.23302	3.1681518	149.3632	7.159425	32.64403
1137	5.23491	3.1690255	149.5962	7.158721	32.65203
1138	5.23735	3.1695708	149.8293	7.158124	32.65576
1139	5.23965	3.1698745	150.0743	7.157677	32.65687
1140	5.24159	3.1701100	150.3136	7.157309	32.65754
1141	5.24284	3.1702960	150.5346	7.157057	32.65834
1142	5.24388	3.1705377	150.7618	7.156800	32.65996
1143	5.24493	3.1708105	150.9976	7.156526	32.66193
1144	5.24602	3.1709903	151.2306	7.156296	32.66280
1145	5.24682	3.1711701	151.4670	7.156104	32.66396
1146	5.24742	3.1713189	151.6879	7.155954	32.66496
1147	5.24772	3.1715049	151.9210	7.155822	32.66667
1148	5.24797	3.1715917	152.1453	7.155749	32.66731
1149	5.24827	3.1717158	152.3843	7.155650	32.66831
1150	5.24877	3.1717778	152.6113	7.155559	32.66842
1151	5.24902	3.1718646	152.8413	7.155486	32.66905
1152	5.24931	3.1719267	153.0715	7.155420	32.66936
1153	5.24936	3.1719578	153.3046	7.155403	32.66955
1154	5.24956	3.1719888	153.5375	7.155366	32.66959
1155	5.24971	3.1720447	153.7524	7.155323	32.66997
1156	5.24991	3.1721067	153.9767	7.155269	32.67037
1157	5.24991	3.1721068	154.2035	7.155275	32.67026
1158	5.25011	3.1721812	154.4338	7.155215	32.67080
1159	5.25036	3.1723177	154.6607	7.155115	32.67200
1160	5.25036	3.1724417	154.8942	7.155054	32.67330
1161	5.25066	3.1726216	155.1179	7.154925	32.67495
1162	5.25101	3.1727146	155.3509	7.154836	32.67555
1163	5.25136	3.1728945	155.6235	7.154702	32.67713
1164	5.25181	3.1730743	155.8866	7.154555	32.67861
1165	5.25226	3.1733781	156.1106	7.154340	32.68153
1166	5.25260	3.1737378	156.3347	7.154109	32.68518
1167	5.25305	3.1739548	156.5588	7.153941	32.68710
1168	5.25315	3.1741347	156.7918	7.153837	32.68894
1169	5.25350	3.1745254	157.0129	7.153588	32.69295
1170	5.25375	3.1749905	157.2522	7.153313	32.69789
1171	5.25430	3.1754370	157.4729	7.153009	32.70234
1172	5.25460	3.1756789	157.7032	7.152847	32.70469
1173	5.25515	3.1758588	157.9272	7.152686	32.70610
1174	5.25545	3.1759767	158.1482	7.152590	32.70704
1175	5.25594	3.1761318	158.3840	7.152450	32.70821
1176	5.25614	3.1762807	158.6173	7.152350	32.70959
1177	5.25669	3.1763986	158.8414	7.152223	32.71029
1178	5.25679	3.1765227	159.0653	7.152149	32.71150
1179	5.25684	3.1766158	159.2926	7.152098	32.71240
1180	5.25709	3.1766779	159.5284	7.152039	32.71274
1181	5.25749	3.1768268	159.7555	7.151914	32.71394
1182	5.25784	3.1769757	159.9795	7.151795	32.71519
1183	5.25819	3.1770998	160.2005	7.151689	32.71615
1184	5.25849	3.1771619	160.4273	7.151624	32.71645
1185	5.25869	3.1772488	160.6545	7.151557	32.71714
1186	5.25903	3.1774349	160.8847	7.151418	32.71880
1187	5.25933	3.1775529	161.1115	7.151323	32.71974
1188	5.25963	3.1777018	161.3448	7.151210	32.72103
1189	5.25978	3.1778569	161.5658	7.151114	32.72255
1190	5.25948	3.1778632	161.7897	7.151153	32.72280
1191	5.25889	3.1778881	162.0107	7.151221	32.72356
1192	5.25819	3.1778882	162.2407	7.151314	32.72412
1193	5.25739	3.1779503	162.4647	7.151387	32.72550
1194	5.25659	3.1779503	162.6917	7.151493	32.72617
1195	5.25604	3.1779752	162.9220	7.151555	32.72687
1196	5.25535	3.1779939	163.1367	7.151638	32.72766
1197	5.25465	3.1780374	163.3606	7.151708	32.72872
1198	5.25440	3.1780375	163.5758	7.151745	32.72886
1199	5.25425	3.1780686	163.8026	7.151752	32.72925
1200	5.25400	3.1780376	164.0328	7.151806	32.72902
1201	5.25380	3.1780997	164.2631	7.151803	32.72981
1202	5.25355	3.1781308	164.4930	7.151823	32.73030
1203	5.25330	3.1781557	164.7078	7.151847	32.73072
1204	5.25325	3.1781930	164.9289	7.151838	32.73108
1205	5.25325	3.1783109	165.1620	7.151780	32.73231
1206	5.25280	3.1785219	165.4311	7.151730	32.73502
1207	5.25245	3.1786461	165.6979	7.151714	32.73664
1208	5.25181	3.1788570	165.9401	7.151688	32.73956
1209	5.25131	3.1791301	166.1670	7.151610	32.74305
1210	5.25101	3.1793721	166.3881	7.151523	32.74600
1211	5.25111	3.1795521	166.5999	7.151419	32.74785
1212	5.25141	3.1797073	166.8297	7.151304	32.74921
1213	5.25166	3.1798562	167.0506	7.151197	32.75056
1214	5.25196	3.1799804	167.2777	7.151098	32.75157
1215	5.25191	3.1800363	167.4989	7.151080	32.75214
1216	5.25186	3.1801046	167.7259	7.151055	32.75286
1217	5.25221	3.1802536	167.9527	7.150936	32.75410
1218	5.25260	3.1804025	168.1796	7.150811	32.75530
1219	5.25290	3.1804647	168.4008	7.150745	32.75560
1220	5.25300	3.1805206	168.6309	7.150708	32.75603
1221	5.25315	3.1806137	168.8639	7.150645	32.75683
1222	5.25345	3.1806758	169.0940	7.150579	32.75713
1223	5.25345	3.1807131	169.3239	7.150564	32.75744
1224	5.25345	3.1807690	169.5539	7.150540	32.75796
1225	5.25340	3.1808560	169.7750	7.150505	32.75890
1226	5.25340	3.1809491	169.9932	7.150460	32.75985
1227	5.25315	3.1810671	170.2229	7.150433	32.76132
1228	5.25290	3.1810982	170.4380	7.150453	32.76181
1229	5.25270	3.1812534	170.6681	7.150401	32.76367
1230	5.25231	3.1813217	170.8918	7.150420	32.76472
1231	5.25216	3.1814025	171.1191	7.150400	32.76568
1232	5.25201	3.1814956	171.3369	7.150375	32.76678
1233	5.25196	3.1815577	171.5580	7.150353	32.76742
1234	5.25171	3.1815826	171.7700	7.150376	32.76785
1235	5.25166	3.1816137	171.9725	7.150370	32.76815
1236	5.25166	3.1816448	172.1874	7.150359	32.76840
1237	5.25161	3.1816759	172.4149	7.150354	32.76869
1238	5.25181	3.1817380	172.6355	7.150300	32.76909
1239	5.25166	3.1818312	172.8594	7.150274	32.77019
1240	5.25186	3.1819802	173.0897	7.150175	32.77158
1241	5.25181	3.1820423	173.3348	7.150153	32.77221
1242	5.25191	3.1820983	173.6403	7.150118	32.77260
1243	5.25201	3.1822225	173.9523	7.150046	32.77376
1244	5.25176	3.1823467	174.2154	7.150017	32.77529
1245	5.25166	3.1824088	174.4393	7.150002	32.77599
1246	5.25166	3.1824647	174.6484	7.149977	32.77652
1247	5.25166	3.1825269	174.8540	7.149948	32.77713
1248	5.25171	3.1825890	175.0572	7.149913	32.77769
1249	5.25171	3.1826449	175.3144	7.149889	32.77820
1250	5.25191	3.1827691	175.5895	7.149804	32.77928
1251	5.25191	3.1828933	175.8558	7.149744	32.78057
1252	5.25186	3.1829865	176.0860	7.149705	32.78156
1253	5.25181	3.1830424	176.2889	7.149686	32.78215
1254	5.25161	3.1831046	176.4917	7.149683	32.78295
1255	5.25156	3.1831605	176.7097	7.149664	32.78353
1256	5.25156	3.1832226	176.9396	7.149636	32.78412
1257	5.25166	3.1832537	177.1878	7.149613	32.78426
1258	5.25186	3.1833159	177.4211	7.149560	32.78465
1259	5.25181	3.1834029	177.6540	7.149525	32.78558
1260	5.25191	3.1835271	177.8900	7.149451	32.78678
1261	5.25211	3.1836202	178.1020	7.149381	32.78754
1262	5.25206	3.1836824	178.3138	7.149359	32.78819
1263	5.25206	3.1837073	178.5258	7.149351	32.78837
1264	5.25221	3.1838004	178.7436	7.149287	32.78918
1265	5.25216	3.1838315	178.9524	7.149282	32.78948
1266	5.25231	3.1839185	179.1703	7.149221	32.79022
1267	5.25221	3.1840738	179.3855	7.149156	32.79198
1268	5.25235	3.1842290	179.5972	7.149058	32.79350
1269	5.25250	3.1844401	179.8180	7.148931	32.79565
1270	5.25270	3.1845271	180.0361	7.148865	32.79634
1271	5.25275	3.1845892	180.2631	7.148830	32.79688
1272	5.25295	3.1846514	180.4811	7.148777	32.79729
1273	5.25290	3.1846825	180.7020	7.148772	32.79758
1274	5.25305	3.1847508	180.9138	7.148721	32.79811
1275	5.25295	3.1847757	181.1256	7.148726	32.79838
1276	5.25325	3.1848006	181.3469	7.148680	32.79827
1277	5.25320	3.1848007	181.5553	7.148691	32.79821
1278	5.25315	3.1848318	181.7795	7.148686	32.79850
1279	5.25340	3.1848629	182.0006	7.148643	32.79850
1280	5.25345	3.1848630	182.2035	7.148641	32.79835
1281	5.25340	3.1848817	182.4303	7.148643	32.79850
1282	5.25345	3.1848942	182.6452	7.148635	32.79849
1283	5.25335	3.1849253	182.8571	7.148636	32.79884
1284	5.25350	3.1849253	183.0629	7.148622	32.79859
1285	5.25350	3.1849254	183.2743	7.148626	32.79848
1286	5.25355	3.1849255	183.4803	7.148625	32.79833
1287	5.25350	3.1849876	183.6893	7.148603	32.79898
1288	5.25365	3.1850187	183.8983	7.148572	32.79909
1289	5.25355	3.1850063	184.1043	7.148596	32.79894
1290	5.25365	3.1850499	184.2949	7.148565	32.79925
1291	5.25360	3.1851058	184.5066	7.148546	32.79983
1292	5.25370	3.1851369	184.7249	7.148522	32.79997
1293	5.25380	3.1851370	184.9362	7.148514	32.79977
1294	5.25405	3.1853233	185.1634	7.148388	32.80154
1295	5.25435	3.1855344	185.3752	7.148242	32.80355
1296	5.25475	3.1857146	185.6235	7.148101	32.80509
1297	5.25510	3.1858078	185.8988	7.148014	32.80568
1298	5.25559	3.1858948	186.1624	7.147910	32.80605
1299	5.25574	3.1859569	186.4072	7.147864	32.80649
1300	5.25594	3.1861433	186.6312	7.147744	32.80831
1301	5.25634	3.1862613	186.8553	7.147635	32.80915
1302	5.25674	3.1863855	187.0791	7.147524	32.81007
1303	5.25714	3.1865036	187.3155	7.147416	32.81090
1304	5.25754	3.1866465	187.5485	7.147294	32.81203
1305	5.25789	3.1867459	187.7753	7.147202	32.81271
1306	5.25809	3.1868080	188.0025	7.147149	32.81311
1307	5.25824	3.1868392	188.2411	7.147119	32.81320
1308	5.25839	3.1868703	188.4805	7.147089	32.81329
1309	5.25854	3.1665033	188.7197	7.157997	32.58078
1310	5.25869	3.1869325	188.9468	7.147029	32.81347
1311	5.25874	3.1869636	189.1797	7.147011	32.81366
1312	5.25864	3.1869885	189.4128	7.147016	32.81392
1313	5.25869	3.1869886	189.6398	7.147015	32.81376
1314	5.25869	3.1870508	189.8697	7.146987	32.81436
1315	5.25889	3.1870819	190.1088	7.146951	32.81440
1316	5.25884	3.1871130	190.3418	7.146946	32.81469
1317	5.25898	3.1871131	190.5812	7.146933	32.81442
1318	5.25923	3.1872063	190.8108	7.146857	32.81512
1319	5.25923	3.1872871	191.0377	7.146819	32.81593
1320	5.25923	3.1872685	191.2772	7.146834	32.81560
1321	5.25928	3.1872935	191.5252	7.146820	32.81571
1322	5.25918	3.1873246	191.7670	7.146822	32.81605
1323	5.25928	3.1873868	191.9972	7.146782	32.81654
1324	5.25943	3.1874179	192.2455	7.146752	32.81663
1325	5.25948	3.1874180	192.4786	7.146751	32.81646
1326	5.25948	3.1874801	192.7175	7.146723	32.81705
1327	5.25953	3.1874802	192.9538	7.146722	32.81689
1328	5.25953	3.1875113	193.1806	7.146711	32.81713
1329	5.25958	3.1875114	193.4196	7.146710	32.81696
1330	5.25963	3.1875673	193.6406	7.146679	32.81744
1331	5.25958	3.1875985	193.8796	7.146675	32.81772
1332	5.25968	3.1876296	194.1129	7.146651	32.81786
1333	5.25953	3.1876918	194.3427	7.146642	32.81861
1334	5.25968	3.1877229	194.5545	7.146611	32.81871
1335	5.25953	3.1877354	194.7876	7.146629	32.81888
1336	5.25958	3.1877851	195.0177	7.146601	32.81928
1337	5.25958	3.1878162	195.2538	7.146590	32.81952
1338	5.25968	3.1878722	195.5018	7.146553	32.81994
1339	5.25963	3.1878723	195.7347	7.146565	32.81987
1340	5.25963	3.1879034	195.9891	7.146554	32.82010
1341	5.25973	3.1879345	196.2584	7.146531	32.82022
1342	5.25968	3.1879657	196.5187	7.146527	32.82050
1343	5.25978	3.1880589	196.7609	7.146470	32.82134
1344	5.25978	3.1880590	196.9880	7.146475	32.82123
1345	5.25988	3.1881149	197.2238	7.146438	32.82165
1346	5.25978	3.1881461	197.4598	7.146440	32.82199
1347	5.25983	3.1881461	197.7078	7.146439	32.82181
1348	5.25993	3.1881773	197.9501	7.146416	32.82195
1349	5.26003	3.1882084	198.1830	7.146392	32.82209
1350	5.26003	3.1882706	198.4130	7.146364	32.82269
1351	5.26008	3.1883762	198.6522	7.146307	32.82372
1352	5.26003	3.1884819	198.8822	7.146262	32.82486
1353	5.26013	3.1885441	199.1301	7.146222	32.82535
1354	5.26003	3.1885752	199.3271	7.146222	32.82570
1355	5.26023	3.1886063	199.4332	7.146183	32.82581
1356	5.26048	3.1886373	199.4451	7.146135	32.82592
1357	5.26123	3.1886373	199.4060	7.146040	32.82520
1358	5.26223	3.1886683	199.3725	7.145897	32.82460
1359	5.26287	3.1887304	199.3762	7.145782	32.82467
1360	5.26327	3.1887553	199.3973	7.145718	32.82455
1361	5.26347	3.1887863	199.4217	7.145677	32.82470
1362	5.26367	3.1888174	199.4367	7.145636	32.82485
1363	5.26377	3.1887553	199.4340	7.145656	32.82404
1364	5.26397	3.1887553	199.4250	7.145631	32.82385
1365	5.26442	3.1887863	199.4342	7.145558	32.82376
1366	5.26462	3.1888174	199.4556	7.145517	32.82391
1367	5.26482	3.1887925	199.4648	7.145505	32.82343
1368	5.26517	3.1887863	199.4706	7.145464	32.82301
1369	5.26542	3.1887553	199.4497	7.145449	32.82242
1370	5.26567	3.1887552	199.3834	7.145416	32.82221
1371	5.26577	3.1886931	199.2563	7.145434	32.82147
1372	5.26532	3.1886931	199.1293	7.145488	32.82197
1373	5.26497	3.1886930	199.0029	7.145529	32.82238
1374	5.26447	3.1886930	198.8818	7.145589	32.82292
1375	5.26452	3.1886371	198.7514	7.145609	32.82230
1376	5.26462	3.1886370	198.6037	7.145593	32.82228
1377	5.26502	3.1886059	198.4583	7.145556	32.82161
1378	5.26502	3.1887239	198.3225	7.145490	32.82302
1379	5.26507	3.1888170	198.1926	7.145431	32.82410
1380	5.26537	3.1888480	198.0687	7.145373	32.82422
1381	5.26547	3.1888790	197.9268	7.145341	32.82455
1382	5.26562	3.1889100	197.7876	7.145302	32.82482
1383	5.26582	3.1888913	197.6486	7.145284	32.82448
1384	5.26606	3.1889410	197.5156	7.145222	32.82487
1385	5.26611	3.1889658	197.3795	7.145200	32.82518
1386	5.26621	3.1889658	197.2465	7.145184	32.82514
1387	5.26601	3.1889657	197.1135	7.145206	32.82540
1388	5.26582	3.1889657	196.9837	7.145228	32.82566
1389	5.26582	3.1889967	196.8418	7.145208	32.82609
1390	5.26582	3.1889966	196.6995	7.145205	32.82616
1391	5.26577	3.1889842	196.5605	7.145215	32.82614
1392	5.26596	3.1890276	196.4212	7.145163	32.82651
1393	5.26572	3.1889965	196.2643	7.145207	32.82647
1394	5.26567	3.1889654	196.1251	7.145227	32.82624
1395	5.26557	3.1889654	195.9890	7.145237	32.82640
1396	5.26547	3.1889405	195.8562	7.145259	32.82628
1397	5.26532	3.1889405	195.7229	7.145275	32.82649
1398	5.26522	3.1889404	195.5902	7.145285	32.82666
1399	5.26502	3.1889528	195.4570	7.145300	32.82706
1400	5.26502	3.1889652	195.3119	7.145290	32.82728
1401	5.26502	3.1889403	195.1728	7.145300	32.82706
1402	5.26502	3.1889402	195.0279	7.145297	32.82713
1403	5.26492	3.1889402	194.8829	7.145306	32.82730
1404	5.26492	3.1889960	194.7106	7.145272	32.82803
1405	5.26512	3.1889401	194.5292	7.145272	32.82728
1406	5.26527	3.1889090	194.3569	7.145266	32.82687
1407	5.26497	3.1887909	194.1905	7.145363	32.82590
1408	5.26467	3.1887226	194.0270	7.145434	32.82549
1409	5.26432	3.1887225	193.8610	7.145474	32.82592
1410	5.26407	3.1886666	193.6856	7.145531	32.82561
1411	5.26377	3.1886355	193.5168	7.145582	32.82563
1412	5.26362	3.1885422	193.3469	7.145647	32.82480
1413	5.26337	3.1885111	193.1810	7.145691	32.82477
1414	5.26322	3.1885111	193.0085	7.145706	32.82500
1415	5.26312	3.1884738	192.8392	7.145734	32.82476
1416	5.26292	3.1884489	192.6635	7.145769	32.82476
1417	5.26277	3.1884488	192.4884	7.145783	32.82499
1418	5.26287	3.1883618	192.3131	7.145813	32.82399
1419	5.26272	3.1883307	192.1319	7.145845	32.82387
1420	5.26262	3.1882686	191.9565	7.145886	32.82335
1421	5.26242	3.1882064	191.7659	7.145940	32.82293
1422	5.26223	3.1881753	191.5874	7.145978	32.82286
1423	5.26218	3.1881504	191.3970	7.145993	32.82272
1424	5.26223	3.1881131	191.2007	7.146002	32.82234
1425	5.26213	3.1880571	191.0161	7.146041	32.82190
1426	5.26203	3.1880260	190.8227	7.146065	32.82174
1427	5.26188	3.1879638	190.6261	7.146113	32.82127
1428	5.26188	3.1879638	190.4418	7.146109	32.82136
1429	5.26183	3.1879327	190.2481	7.146127	32.82115
1430	5.26183	3.1879016	190.0546	7.146139	32.82089
1431	5.26173	3.1878642	189.8642	7.146167	32.82066
1432	5.26143	3.1878394	189.6708	7.146214	32.82077
1433	5.26143	3.1878145	189.4833	7.146223	32.82058
1434	5.26128	3.1878144	189.2898	7.146237	32.82082
1435	5.26123	3.1877522	189.1019	7.146272	32.82025
1436	5.26123	3.1876901	188.9055	7.146301	32.81964
1437	5.26098	3.1876900	188.7215	7.146328	32.81998
1438	5.26113	3.1876589	188.5217	7.146321	32.81958
1439	5.26113	3.1876402	188.3224	7.146327	32.81946
1440	5.26093	3.1876277	188.1376	7.146354	32.81961
1441	5.26093	3.1876277	187.9472	7.146350	32.81970
1442	5.26083	3.1875966	187.7508	7.146374	32.81954
1443	5.26083	3.1875655	187.5569	7.146386	32.81929
1444	5.26073	3.1875406	187.3638	7.146408	32.81920
1445	5.26063	3.1866277	187.1642	7.146905	32.80898
1446	5.26063	3.1866587	186.9733	7.146884	32.80943
1447	5.26063	3.1871864	186.7743	7.146596	32.81555
1448	5.26048	3.1872671	186.5871	7.146568	32.81671
1449	5.26033	3.1855036	186.3902	7.147527	32.79684
1450	5.26043	3.1858078	186.1904	7.147347	32.80031
1451	5.26048	3.1857146	185.9760	7.147385	32.79930
1452	5.26098	3.1851992	185.7490	7.147593	32.79305
1453	5.26098	3.1872916	185.5557	7.146467	32.81702
1454	5.26078	3.1872357	185.3681	7.146518	32.81667
1455	5.26053	3.1872853	185.1838	7.146519	32.81757
1456	5.26073	3.1873535	185.0024	7.146453	32.81824
1457	5.26108	3.1873845	184.8090	7.146387	32.81835
1458	5.26128	3.1873224	184.6183	7.146391	32.81754
1459	5.26133	3.1872664	184.4219	7.146410	32.81695
1460	5.26118	3.1872664	184.2312	7.146425	32.81719
1461	5.26098	3.1872353	184.0404	7.146462	32.81713
1462	5.26063	3.1871545	183.8533	7.146545	32.81664
1463	5.26023	3.1871110	183.6658	7.146614	32.81663
1464	5.25963	3.1870488	183.4751	7.146719	32.81660
1465	5.25943	3.1869618	183.2845	7.146786	32.81590
1466	5.25908	3.1868686	183.0879	7.146875	32.81528
1467	5.25859	3.1867444	182.8916	7.147000	32.81445
1468	5.25834	3.1866884	182.6980	7.147057	32.81415
1469	5.25794	3.1865331	182.4984	7.147186	32.81287
1470	5.25764	3.1864834	182.3079	7.147246	32.81269
1471	5.25749	3.1863840	182.1113	7.147314	32.81180
1472	5.25724	3.1863219	181.9177	7.147374	32.81143
1473	5.25714	3.1863218	181.7304	7.147382	32.81162
1474	5.25699	3.1862907	181.5370	7.147413	32.81151
1475	5.25674	3.1861975	181.3463	7.147490	32.81079
1476	5.25659	3.1861105	181.1620	7.147551	32.81003
1477	5.25634	3.1860484	180.9681	7.147611	32.80967
1478	5.25624	3.1860670	180.7777	7.147609	32.81007
1479	5.25624	3.1860172	180.5873	7.147632	32.80960
1480	5.25619	3.1860482	180.3938	7.147617	32.81010
1481	5.25619	3.1860171	180.2062	7.147629	32.80984
1482	5.25619	3.1859860	180.0163	7.147641	32.80958
1483	5.25609	3.1859859	179.8224	7.147649	32.80977
1484	5.25589	3.1858928	179.6289	7.147720	32.80900
1485	5.25579	3.1858368	179.4350	7.147758	32.80855
1486	5.25569	3.1858057	179.2327	7.147783	32.80840
1487	5.25574	3.1857125	179.0422	7.147822	32.80738
1488	5.25550	3.1856504	178.8486	7.147882	32.80701
1489	5.25540	3.1855634	178.6520	7.147937	32.80622
1490	5.25525	3.1855013	178.4555	7.147984	32.80575
1491	5.25520	3.1855012	178.2679	7.147986	32.80589
1492	5.25525	3.1855011	178.0746	7.147975	32.80594
1493	5.25530	3.1854887	177.8689	7.147971	32.80585
1494	5.25535	3.1855321	177.6723	7.147937	32.80640
1495	5.25550	3.1856810	177.4637	7.147833	32.80806
1496	5.25604	3.1858051	177.2640	7.147693	32.80903
1497	5.25634	3.1858050	177.0642	7.147650	32.80884
1498	5.25644	3.1856808	176.8590	7.147699	32.80743
1499	5.25639	3.1855628	176.6594	7.147764	32.80623
1500	5.25619	3.1855627	176.4566	7.147785	32.80653
1501	5.25594	3.1855502	176.2600	7.147818	32.80673
1502	5.25604	3.1855316	176.0542	7.147811	32.80652
1503	5.25579	3.1855315	175.8485	7.147837	32.80686
1504	5.25559	3.1854383	175.6522	7.147908	32.80609
1505	5.25545	3.1853451	175.4527	7.147972	32.80528
1506	5.25525	3.1853451	175.2469	7.147992	32.80558
1507	5.25515	3.1852891	175.0142	7.148030	32.80515
1508	5.25505	3.1850718	174.7902	7.148153	32.80288
1509	5.25475	3.1847116	174.5846	7.148380	32.79917
1510	5.25435	3.1845005	174.4031	7.148539	32.79724
1511	5.25430	3.1844694	174.2065	7.148557	32.79703
1512	5.25420	3.1845563	174.0101	7.148519	32.79822
1513	5.25425	3.1847983	173.8014	7.148378	32.80104
1514	5.25440	3.1851956	173.6079	7.148141	32.80552
1515	5.25440	3.1855618	173.3719	7.147939	32.80982
1516	5.25435	3.1859032	173.0938	7.147756	32.81390
1517	5.25475	3.1854064	172.8246	7.147966	32.80798
1518	5.25500	3.1844689	172.5827	7.148431	32.79715
1519	5.25500	3.1840716	172.3920	7.148640	32.79272
1520	5.25450	3.1840095	172.2016	7.148732	32.79259
1521	5.25430	3.1839784	171.9899	7.148768	32.79254
1522	5.25420	3.1839535	171.7780	7.148789	32.79246
1523	5.25405	3.1839472	171.5635	7.148807	32.79264
1524	5.25375	3.1837671	171.3578	7.148936	32.79098
1525	5.25340	3.1835560	171.1490	7.149089	32.78902
1526	5.25315	3.1834318	170.9465	7.149182	32.78794
1527	5.25305	3.1833759	170.7346	7.149220	32.78751
1528	5.25285	3.1833138	170.5204	7.149273	32.78710
1529	5.25265	3.1831896	170.3115	7.149360	32.78599
1530	5.25255	3.1830157	170.1056	7.149461	32.78420
1531	5.25250	3.1829163	169.9032	7.149516	32.78322
1532	5.25240	3.1828604	169.6882	7.149553	32.78279
1533	5.25226	3.1827983	169.4795	7.149601	32.78233
1534	5.25216	3.1826741	169.2738	7.149675	32.78111
1535	5.25211	3.1825871	169.0561	7.149723	32.78028
1536	5.25196	3.1825561	168.8566	7.149754	32.78017
1537	5.25191	3.1824939	168.6449	7.149788	32.77961
1538	5.25201	3.1824442	168.4423	7.149798	32.77905
1539	5.25191	3.1824317	168.2277	7.149812	32.77911
1540	5.25191	3.1823448	168.0157	7.149854	32.77823
1541	5.25176	3.1822516	167.8012	7.149917	32.77742
1542	5.25176	3.1821275	167.5956	7.149979	32.77610
1543	5.25181	3.1820405	167.3776	7.150014	32.77517
1544	5.25181	3.1819784	167.1719	7.150043	32.77456
1545	5.25191	3.1818976	166.9544	7.150068	32.77365
1546	5.25186	3.1817673	166.7515	7.150140	32.77232
1547	5.25201	3.1816431	166.5463	7.150183	32.77086
1548	5.25206	3.1815561	166.3404	7.150218	32.76992
1549	5.25211	3.1814320	166.1285	7.150274	32.76856
1550	5.25226	3.1813698	165.9169	7.150283	32.76781
1551	5.25221	3.1812519	165.7204	7.150348	32.76661
1552	5.25231	3.1811587	165.5177	7.150381	32.76555
1553	5.25235	3.1810966	165.3089	7.150403	32.76490
1554	5.25231	3.1810655	165.1126	7.150421	32.76469
1555	5.25231	3.1810655	164.8948	7.150416	32.76480
1556	5.25240	3.1810096	164.6890	7.150429	32.76416
1557	5.25245	3.1810964	164.4832	7.150371	32.76521
1558	5.25240	3.1813073	164.2657	7.150259	32.76777
1559	5.25260	3.1811273	164.0447	7.150325	32.76564
1560	5.25250	3.1809472	163.8421	7.150430	32.76378
1561	5.25255	3.1808231	163.6394	7.150485	32.76242
1562	5.25231	3.1807672	163.4397	7.150542	32.76212
1563	5.25231	3.1808230	163.2311	7.150507	32.76286
1564	5.25245	3.1809780	163.0315	7.150400	32.76459
1565	5.25265	3.1808849	162.8229	7.150420	32.76343
1566	5.25275	3.1808104	162.6142	7.150443	32.76259
1567	5.25275	3.1807358	162.4055	7.150478	32.76184
1568	5.25260	3.1807668	162.1966	7.150475	32.76245
1569	5.25231	3.1806116	161.9910	7.150591	32.76107
1570	5.25201	3.1805805	161.7854	7.150641	32.76111
1571	5.25191	3.1805184	161.5766	7.150682	32.76060
1572	5.25186	3.1804935	161.3676	7.150697	32.76047
1573	5.25181	3.1804873	161.1654	7.150702	32.76055
1574	5.25186	3.1805803	160.9658	7.150641	32.76166
1575	5.25181	3.1808843	160.7631	7.150479	32.76528
1576	5.25196	3.1810952	160.5572	7.150342	32.76765
1577	5.25206	3.1813992	160.3516	7.150162	32.77112
1578	5.25221	3.1818273	160.1520	7.149908	32.77596
1579	5.25250	3.1820382	159.9462	7.149753	32.77818
1580	5.25265	3.1820878	159.7468	7.149702	32.77870
1581	5.25290	3.1821250	159.5563	7.149647	32.77897
1582	5.25315	3.1822490	159.3718	7.149544	32.78024
1583	5.25340	3.1824600	159.1843	7.149395	32.78249
1584	5.25360	3.1826399	158.9909	7.149269	32.78445
1585	5.25395	3.1827640	158.8059	7.149154	32.78562
1586	5.25430	3.1828880	158.6215	7.149039	32.78678
1587	5.25500	3.1830804	158.4343	7.148843	32.78839
1588	5.25574	3.1832479	158.2374	7.148654	32.78967
1589	5.25624	3.1833099	158.0467	7.148554	32.78998
1590	5.25679	3.1831547	157.8533	7.148563	32.78777
1591	5.25724	3.1830056	157.6627	7.148582	32.78573
1592	5.25764	3.1830366	157.4782	7.148511	32.78578
1593	5.25789	3.1832165	157.2905	7.148378	32.78768
1594	5.25789	3.1834275	157.1033	7.148261	32.79019
1595	5.25799	3.1834275	156.9158	7.148244	32.79018
1596	5.25814	3.1833095	156.7222	7.148283	32.78879
1597	5.25819	3.1832473	156.5317	7.148306	32.78812
1598	5.25794	3.1830983	156.3440	7.148413	32.78676
1599	5.25784	3.1829431	156.1536	7.148504	32.78518
1600	5.25754	3.1828562	155.9689	7.148584	32.78458
1601	5.25729	3.1827568	155.7817	7.148665	32.78378
1602	5.25704	3.1826699	155.5938	7.148738	32.78312
1603	5.25684	3.1826139	155.4063	7.148789	32.78278
1604	5.25669	3.1825518	155.2159	7.148837	32.78231
1605	5.25659	3.1825518	155.0254	7.148845	32.78250
1606	5.25644	3.1825517	154.8345	7.148859	32.78274
1607	5.25629	3.1825517	154.6444	7.148874	32.78298
1608	5.25604	3.1825516	154.4627	7.148901	32.78332
1609	5.25584	3.1825329	154.2567	7.148932	32.78340
1610	5.25574	3.1825204	154.0454	7.148946	32.78346
1611	5.25589	3.1825514	153.8426	7.148906	32.78377
1612	5.25584	3.1825203	153.6583	7.148924	32.78356
1613	5.25559	3.1826382	153.4765	7.148888	32.78524
1614	5.25555	3.1826692	153.2890	7.148873	32.78573
1615	5.25569	3.1826691	153.0953	7.148850	32.78568
1616	5.25589	3.1827249	152.9048	7.148790	32.78622
1617	5.25589	3.1828552	152.7112	7.148716	32.78781
1618	5.25584	3.1829110	152.5147	7.148688	32.78859
1619	5.25604	3.1830350	152.3181	7.148591	32.78991
1620	5.25614	3.1831839	152.1245	7.148494	32.79161
1621	5.25619	3.1833080	151.9339	7.148417	32.79307
1622	5.25629	3.1833390	151.7462	7.148383	32.79342
1623	5.25659	3.1833327	151.5464	7.148344	32.79316
1624	5.25679	3.1834258	151.3562	7.148265	32.79412
1625	5.25714	3.1834878	151.1623	7.148183	32.79458
1626	5.25729	3.1835808	150.9661	7.148109	32.79559
1627	5.25739	3.1836118	150.7694	7.148076	32.79595
1628	5.25764	3.1836986	150.5817	7.147993	32.79679
1629	5.25784	3.1837296	150.3885	7.147947	32.79704
1630	5.25794	3.1838102	150.1978	7.147886	32.79796
1631	5.25814	3.1838536	150.0192	7.147834	32.79835
1632	5.25819	3.1839467	149.8167	7.147773	32.79947
1633	5.25839	3.1839466	149.6290	7.147743	32.79936
1634	5.25829	3.1840024	149.4323	7.147721	32.80020
1635	5.25834	3.1840955	149.2418	7.147661	32.80131
1636	5.25829	3.1841265	149.0541	7.147646	32.80180
1637	5.25844	3.1841574	148.8669	7.147606	32.80210
1638	5.25844	3.1841636	148.6789	7.147598	32.80227
1639	5.25854	3.1842442	148.5036	7.147538	32.80318
1640	5.25854	3.1842752	148.3130	7.147517	32.80363
1641	5.25859	3.1842752	148.1284	7.147507	32.80367
1642	5.25874	3.1843061	147.9410	7.147467	32.80397
1643	5.25884	3.1843682	147.7566	7.147417	32.80467
1644	5.25898	3.1843371	147.5688	7.147410	32.80427
1645	5.25913	3.1842935	147.3846	7.147410	32.80372
1646	5.25933	3.1842190	147.1941	7.147420	32.80277
1647	5.25973	3.1841879	147.0034	7.147382	32.80211
1648	5.26013	3.1841568	146.8187	7.147344	32.80146
1649	5.26063	3.1841257	146.6250	7.147293	32.80072
1650	5.26103	3.1840325	146.4378	7.147289	32.79936
1651	5.26133	3.1824559	146.2624	7.148092	32.78116
1652	5.26153	3.1829772	146.0683	7.147783	32.78701
1653	5.26158	3.1837903	145.8811	7.147336	32.79633
1654	5.26183	3.1829088	145.6841	7.147773	32.78613
1655	5.26178	3.1829088	145.4937	7.147775	32.78627
1656	5.26213	3.1837901	145.3002	7.147253	32.79608
1657	5.26237	3.1836969	145.1098	7.147267	32.79487
1658	5.26267	3.1836099	144.9190	7.147272	32.79368
1659	5.26297	3.1834857	144.7314	7.147296	32.79207
1660	5.26307	3.1833926	144.5379	7.147329	32.79100
1661	5.26322	3.1833056	144.3414	7.147352	32.78996
1662	5.26347	3.1832125	144.1417	7.147366	32.78876
1663	5.26362	3.1831814	143.9329	7.147359	32.78836
1664	5.26372	3.1831254	143.7483	7.147372	32.78772
1665	5.26367	3.1829082	143.5546	7.147490	32.78538
1666	5.26327	3.1829081	143.3611	7.147536	32.78587
1667	5.26312	3.1830073	143.1705	7.147497	32.78724
1668	5.26352	3.1830011	142.9830	7.147446	32.78688
1669	5.26377	3.1828521	142.7893	7.147489	32.78503
1670	5.26387	3.1826348	142.5990	7.147589	32.78255
1671	5.26422	3.1823927	142.4022	7.147670	32.77954
1672	5.26427	3.1821816	142.2174	7.147773	32.77718
1673	5.26447	3.1821195	142.0240	7.147776	32.77637
1674	5.26457	3.1820201	141.8303	7.147812	32.77523
1675	5.26457	3.1819084	141.6427	7.147868	32.77405
1676	5.26457	3.1817594	141.4491	7.147943	32.77245
1677	5.26467	3.1815731	141.2585	7.148026	32.77032
1678	5.26467	3.1813621	141.0741	7.148135	32.76801
1679	5.26462	3.1811511	140.8896	7.148250	32.76574
1680	5.26452	3.1809400	140.6989	7.148371	32.76353
1681	5.26452	3.1808655	140.5146	7.148407	32.76277
1682	5.26462	3.1807289	140.3299	7.148463	32.76120
1683	5.26437	3.1804559	140.1365	7.148636	32.75843
1684	5.26447	3.1802449	139.9486	7.148733	32.75602
1685	5.26442	3.1800897	139.7549	7.148817	32.75439
1686	5.26402	3.1799097	139.5675	7.148960	32.75282
1687	5.26382	3.1797297	139.3799	7.149077	32.75106
1688	5.26377	3.1795560	139.1893	7.149172	32.74922
1689	5.26352	3.1793015	139.0047	7.149336	32.74665
1690	5.26352	3.1790285	138.8172	7.149478	32.74363
1691	5.26322	3.1789664	138.6358	7.149545	32.74331
1692	5.26317	3.1787865	138.4480	7.149643	32.74140
1693	5.26287	3.1785755	138.2577	7.149790	32.73938
1694	5.26262	3.1785134	138.0640	7.149850	32.73901
1695	5.26233	3.1783087	137.8763	7.149993	32.73706
1696	5.26193	3.1781535	137.6856	7.150122	32.73578
1697	5.26173	3.1779426	137.5043	7.150256	32.73365
1698	5.26128	3.1778185	137.3137	7.150375	32.73277
1699	5.26093	3.1777564	137.1294	7.150448	32.73250
1700	5.26068	3.1775144	136.9417	7.150605	32.73007
1701	5.26048	3.1772849	136.7628	7.150749	32.72774
1702	5.26028	3.1770305	136.5756	7.150906	32.72513
1703	5.25998	3.1768506	136.3878	7.151036	32.72346
1704	5.25953	3.1766707	136.2065	7.151185	32.72194
1705	5.25923	3.1764288	136.0191	7.151348	32.71956
1706	5.25879	3.1761249	135.8254	7.151564	32.71663
1707	5.25844	3.1760008	135.6346	7.151670	32.71565
1708	5.25809	3.1759759	135.4499	7.151723	32.71580
1709	5.25764	3.1754302	135.2657	7.152068	32.71010
1710	5.25724	3.1751573	135.0809	7.152261	32.70747
1711	5.25669	3.1750952	134.8902	7.152359	32.70739
1712	5.25634	3.1749402	134.7060	7.152482	32.70606
1713	5.25589	3.1748223	134.5063	7.152597	32.70525
1714	5.25525	3.1743138	134.2915	7.152947	32.70019
1715	5.25465	3.1747292	134.0917	7.152795	32.70561
1716	5.25390	3.1747911	133.9135	7.152852	32.70714
1717	5.25360	3.1746981	133.7408	7.152936	32.70646
1718	5.25365	3.1733092	133.5473	7.153670	32.69066
1719	5.25350	3.1732472	133.3625	7.153718	32.69019
1720	5.25305	3.1734207	133.1724	7.153677	32.69270
1721	5.25235	3.1734021	132.9872	7.153771	32.69326
1722	5.25181	3.1732780	132.7998	7.153903	32.69247
1723	5.25131	3.1730362	132.6183	7.154092	32.69029
1724	5.25086	3.1727944	132.4278	7.154274	32.68807
1725	5.25021	3.1725836	132.2549	7.154465	32.68638
1726	5.24981	3.1724657	132.0679	7.154574	32.68552
1727	5.24921	3.1722735	131.8801	7.154749	32.68400
1728	5.24877	3.1721619	131.6985	7.154861	32.68326
1729	5.24822	3.1720379	131.5140	7.154993	32.68247
1730	5.24757	3.1718271	131.3295	7.155184	32.68079
1731	5.24697	3.1715853	131.1449	7.155385	32.67870
1732	5.24672	3.1714675	130.9573	7.155475	32.67770
1733	5.24622	3.1713807	130.7821	7.155581	32.67728
1734	5.24578	3.1711017	130.5884	7.155783	32.67463
1735	5.24553	3.1707732	130.4039	7.155986	32.67122
1736	5.24493	3.1706492	130.2221	7.156124	32.67048
1737	5.24448	3.1705004	130.0315	7.156257	32.66931
1738	5.24398	3.1701967	129.8439	7.156478	32.66643
1739	5.24358	3.1699116	129.6683	7.156678	32.66365
1740	5.24303	3.1695645	129.4717	7.156929	32.66032
1741	5.24254	3.1691431	129.2780	7.157214	32.65609
1742	5.24234	3.1689572	129.0752	7.157334	32.65427
1743	5.24184	3.1687774	128.8819	7.157490	32.65280
1744	5.24139	3.1686039	128.6881	7.157635	32.65135
1745	5.24109	3.1681763	128.4947	7.157898	32.64686
1746	5.24099	3.1680833	128.2979	7.157956	32.64600
1747	5.24074	3.1681143	128.1072	7.157966	32.64669
1748	5.24054	3.1679345	127.9168	7.158084	32.64493
1749	5.24024	3.1674513	127.7379	7.158377	32.63979
1750	5.24024	3.1672653	127.5357	7.158472	32.63777
1751	5.24029	3.1671476	127.3509	7.158525	32.63647
1752	5.24049	3.1669369	127.1631	7.158608	32.63397
1753	5.24059	3.1665776	126.9817	7.158784	32.62986
1754	5.24069	3.1663359	126.7970	7.158897	32.62710
1755	5.24054	3.1660633	126.6126	7.159058	32.62422
1756	5.24044	3.1658341	126.4341	7.159190	32.62179
1757	5.24024	3.1656421	126.2464	7.159314	32.61989
1758	5.24014	3.1652518	126.0560	7.159532	32.61563
1759	5.24000	3.1649483	125.8741	7.159710	32.61240
1760	5.24000	3.1645890	125.6808	7.159898	32.60840
1761	5.24000	3.1642112	125.4930	7.160097	32.60418
1762	5.24004	3.1638644	125.3054	7.160272	32.60027
1763	5.24000	3.1635052	125.1210	7.160467	32.59631
1764	5.23980	3.1631398	124.9333	7.160684	32.59243
1765	5.23985	3.1629911	124.7306	7.160753	32.59078
1766	5.23975	3.1626567	124.5067	7.160940	32.58718
1767	5.23985	3.1625700	124.3011	7.160969	32.58619
1768	5.23990	3.1623904	124.1133	7.161055	32.58419
1769	5.23995	3.1615174	123.9318	7.161514	32.57427
1770	5.23995	3.1614864	123.7323	7.161526	32.57401
1771	5.23995	3.1613316	123.5355	7.161604	32.57235
1772	5.23985	3.1609725	123.3476	7.161805	32.56844
1773	5.23985	3.1606134	123.1514	7.161994	32.56444
1774	5.23975	3.1603719	122.9607	7.162132	32.56188
1775	5.24000	3.1601305	122.7698	7.162225	32.55897
1776	5.24004	3.1598581	122.5702	7.162361	32.55592
1777	5.24009	3.1597652	122.3887	7.162400	32.55490
1778	5.24019	3.1595918	122.1918	7.162476	32.55292
1779	5.24059	3.1593504	122.0075	7.162551	32.54987
1780	5.24074	3.1590780	121.8197	7.162673	32.54671
1781	5.24109	3.1588057	121.6171	7.162771	32.54337
1782	5.24134	3.1586818	121.4297	7.162801	32.54181
1783	5.24174	3.1584776	121.2329	7.162856	32.53919
1784	5.24199	3.1582671	121.0421	7.162933	32.53664
1785	5.24224	3.1580257	120.8392	7.163026	32.53374
1786	5.24254	3.1578153	120.6517	7.163097	32.53115
1787	5.24289	3.1575058	120.4491	7.163214	32.52738
1788	5.24313	3.1573944	120.2553	7.163238	32.52596
1789	5.24348	3.1571839	120.0587	7.163302	32.52332
1790	5.24383	3.1569116	119.8557	7.163399	32.51997
1791	5.24418	3.1567321	119.6564	7.163446	32.51769
1792	5.24438	3.1566207	119.4508	7.163476	32.51633
1793	5.24463	3.1562185	119.2509	7.163656	32.51160
1794	5.24483	3.1560700	119.0480	7.163706	32.50981
1795	5.24528	3.1559214	118.8487	7.163724	32.50778
1796	5.24573	3.1556492	118.6549	7.163808	32.50433
1797	5.24642	3.1554140	118.4461	7.163841	32.50108
1798	5.24677	3.1421062	118.2461	7.170943	32.34910
1799	5.24712	3.1372099	118.0524	7.173526	32.29306
1800	5.24752	3.1547520	117.8559	7.164044	32.49276
1801	5.24752	3.1544303	117.6561	7.164212	32.48919
1802	5.24827	3.1541209	117.4474	7.164278	32.48504
1803	5.24921	3.1540281	117.2508	7.164203	32.48316
1804	5.25036	3.1537559	117.0508	7.164199	32.47904
1805	5.25151	3.1533105	116.8572	7.164288	32.47295
1806	5.25250	3.1532300	116.6545	7.164200	32.47116
1807	5.25355	3.1529455	116.4611	7.164215	32.46700
1808	5.25445	3.1525558	116.2612	7.164305	32.46179
1809	5.25545	3.1524383	116.0708	7.164237	32.45957
1810	5.25639	3.1523454	115.8710	7.164162	32.45770
1811	5.25774	3.1520238	115.6773	7.164159	32.45282
1812	5.25893	3.1517455	115.4744	7.164152	32.44859
1813	5.26043	3.1515105	115.2808	7.164083	32.44456
1814	5.26208	3.1513002	115.0811	7.163982	32.44067
1815	5.26322	3.1511702	114.8724	7.163901	32.43818
1816	5.26427	3.1509971	114.6725	7.163857	32.43529
1817	5.26547	3.1504900	114.4518	7.163971	32.42846
1818	5.26696	3.1506074	114.2461	7.163713	32.42845
1819	5.26846	3.1503971	114.0551	7.163632	32.42470
1820	5.26965	3.1498098	113.8614	7.163790	32.41695
1821	5.27040	3.1497355	113.6590	7.163730	32.41548
1822	5.27130	3.1497663	113.4534	7.163595	32.41506
1823	5.27245	3.1495561	113.2565	7.163557	32.41165
1824	5.27329	3.1493953	113.0536	7.163531	32.40910
1825	5.27429	3.1493211	112.8567	7.163439	32.40739
1826	5.27539	3.1491665	112.6602	7.163378	32.40466
1827	5.27644	3.1489562	112.4604	7.163353	32.40135
1828	5.27709	3.1489314	112.2667	7.163279	32.40054
1829	5.27773	3.1488572	112.0638	7.163232	32.39917
1830	5.27863	3.1487211	111.8613	7.163186	32.39685
1831	5.27953	3.1485109	111.6645	7.163180	32.39368
1832	5.28073	3.1483872	111.4709	7.163089	32.39121
1833	5.28177	3.1482883	111.2651	7.163004	32.38918
1834	5.28257	3.1481769	111.0685	7.162958	32.38723
1835	5.28332	3.1480903	110.8687	7.162905	32.38562
1836	5.28387	3.1479976	110.6660	7.162880	32.38414
1837	5.28442	3.1477874	110.4692	7.162918	32.38131
1838	5.28522	3.1476266	110.2666	7.162898	32.37881
1839	5.28621	3.1474906	110.0729	7.162840	32.37639
1840	5.28711	3.1472804	109.8702	7.162834	32.37323
1841	5.28776	3.1473730	109.6793	7.162697	32.37375
1842	5.28861	3.1472432	109.4735	7.162654	32.37155
1843	5.28916	3.1468909	109.2648	7.162768	32.36712
1844	5.28980	3.1468043	109.0590	7.162727	32.36561
1845	5.29130	3.1468907	108.8563	7.162486	32.36524
1846	5.29245	3.1465322	108.6594	7.162527	32.36015
1847	5.29355	3.1462665	108.4537	7.162526	32.35617
1848	5.29425	3.1462293	108.2510	7.162452	32.35517
1849	5.29544	3.1460500	108.0546	7.162391	32.35207
1850	5.29669	3.1460809	107.8547	7.162211	32.35131
1851	5.29774	3.1459819	107.6581	7.162126	32.34927
1852	5.29874	3.1459015	107.4521	7.162038	32.34750
1853	5.29983	3.1458397	107.2495	7.161927	32.34583
1854	5.30093	3.1456357	107.0557	7.161892	32.34255
1855	5.30168	3.1455059	106.8440	7.161861	32.34045
1856	5.30228	3.1453019	106.6411	7.161889	32.33765
1857	5.30338	3.1453327	106.4352	7.161729	32.33705
1858	5.30512	3.1453018	106.2415	7.161518	32.33510
1859	5.30677	3.1451225	106.0388	7.161400	32.33158
1860	5.30812	3.1450298	105.8390	7.161274	32.32932
1861	5.30962	3.1449432	105.6395	7.161125	32.32699
1862	5.31101	3.1448566	105.4425	7.160989	32.32475
1863	5.31236	3.1446774	105.2308	7.160909	32.32152
1864	5.31396	3.1445599	105.0310	7.160764	32.31874
1865	5.31521	3.1446155	104.8191	7.160571	32.31827
1866	5.31690	3.1445536	104.6226	7.160383	32.31603
1867	5.31915	3.1442261	104.4077	7.160268	32.31024
1868	5.32264	3.1442136	104.1959	7.159825	32.30684
1869	5.32644	3.1442568	104.0053	7.159315	32.30376
1870	5.32899	3.1437501	103.8053	7.159258	32.29565
1871	5.33133	3.1437501	103.6057	7.158955	32.29348
1872	5.33363	3.1438056	103.4087	7.158628	32.29200
1873	5.33593	3.1435769	103.2122	7.158454	32.28728
1874	5.33842	3.1434162	103.0096	7.158218	32.28315
1875	5.34107	3.1433297	102.8066	7.157923	32.27972
1876	5.34367	3.1432060	102.6040	7.157654	32.27591
1877	5.34677	3.1431380	102.3951	7.157292	32.27226
1878	5.35041	3.1429403	102.1984	7.156929	32.26660
1879	5.35376	3.1429093	101.9957	7.156515	32.26313
1880	5.35756	3.1428783	101.7901	7.156045	32.25922
1881	5.36145	3.1426311	101.5870	7.155676	32.25276
1882	5.36510	3.1426125	101.3873	7.155218	32.24914
1883	5.36825	3.1425506	101.1937	7.154847	32.24551
1884	5.37150	3.1423097	100.9938	7.154558	32.23975
1885	5.37530	3.1423157	100.7941	7.154067	32.23626
1886	5.37935	3.1422786	100.5943	7.153568	32.23205
1887	5.38255	3.1419512	100.3823	7.153331	32.22536
1888	5.38620	3.1418646	100.1827	7.152909	32.22097
1889	5.39105	3.1419695	99.9829	7.152232	32.21760
1890	5.39565	3.1418644	99.7831	7.151699	32.21209
1891	5.39940	3.1417408	99.5897	7.151284	32.20718
1892	5.40245	3.1418333	99.3837	7.150842	32.20540
1893	5.40500	3.1418332	99.1961	7.150514	32.20305
1894	5.40835	3.1416540	98.9994	7.150179	32.19790
1895	5.41136	3.1415304	98.8150	7.149860	32.19370
1896	5.41366	3.1414130	98.6241	7.149625	32.19026
1897	5.41576	3.1413821	98.4210	7.149370	32.18799
1898	5.41821	3.1413696	98.2186	7.149061	32.18560
1899	5.42011	3.1414128	98.0249	7.148792	32.18436
1900	5.42261	3.1415053	97.8282	7.148421	32.18311
1901	5.42622	3.1415608	97.6283	7.147929	32.18038
1902	5.43047	3.1414310	97.4378	7.147454	32.17493
1903	5.43503	3.1415297	97.2438	7.146818	32.17178
1904	5.43983	3.1416531	97.0595	7.146139	32.16866
1905	5.44549	3.1416530	96.8626	7.145416	32.16334
1906	5.45085	3.1415541	96.6809	7.144785	32.15717
1907	5.45505	3.1415910	96.4842	7.144227	32.15366
1908	5.45911	3.1417392	96.2877	7.143629	32.15155
1909	5.46407	3.1418008	96.0875	7.142963	32.14760
1910	5.46878	3.1417760	95.8942	7.142374	32.14291
1911	5.47424	3.1418623	95.6943	7.141631	32.13876
1912	5.48000	3.1418005	95.4977	7.140929	32.13265
1913	5.48606	3.1418003	95.2979	7.140155	32.12694
1914	5.49047	3.1418064	95.1042	7.139589	32.12289
1915	5.49489	3.1417384	94.9076	7.139061	32.11800
1916	5.49860	3.1419174	94.7198	7.138492	32.11657
1917	5.50231	3.1419482	94.5232	7.138001	32.11347
1918	5.50592	3.1421272	94.3264	7.137444	32.11215
1919	5.50983	3.1420591	94.1327	7.136980	32.10774
1920	5.51389	3.1422196	93.9420	7.136376	32.10577
1921	5.51915	3.1423369	93.7452	7.135642	32.10216
1922	5.52327	3.1423367	93.5393	7.135117	32.09833
1923	5.52673	3.1424046	93.3487	7.134638	32.09589
1924	5.53365	3.1424292	93.1611	7.133744	32.08965
1925	5.53992	3.1425464	92.9645	7.132883	32.08509
1926	5.54509	3.1424845	92.7797	7.132257	32.07955
1927	5.54866	3.1424721	92.5861	7.131808	32.07610
1928	5.55096	3.1425461	92.4015	7.131473	32.07483
1929	5.55257	3.1425152	92.2230	7.131282	32.07304
1930	5.55453	3.1425768	92.0260	7.130997	32.07196
1931	5.55689	3.1427559	91.8507	7.130600	32.07182
1932	5.55980	3.1428423	91.6568	7.130181	32.07012
1933	5.56442	3.1429039	91.4660	7.129560	32.06650
1934	5.57044	3.1431447	91.2785	7.128666	32.06357
1935	5.57742	3.1432866	91.0878	7.127704	32.05862
1936	5.58340	3.1432927	90.9062	7.126940	32.05308
1937	5.58903	3.1435026	90.7216	7.126114	32.05018
1938	5.59375	3.1437990	90.5250	7.125356	32.04913
1939	5.59807	3.1440398	90.3432	7.124679	32.04782
1940	5.60305	3.1442065	90.1584	7.123958	32.04505
1941	5.60908	3.1443114	89.9769	7.123136	32.04059
1942	5.61501	3.1446078	89.7892	7.122227	32.03838
1943	5.62009	3.1449043	89.6078	7.121425	32.03698
1944	5.62501	3.1451822	89.4260	7.120652	32.03551
1945	5.63014	3.1451759	89.2354	7.120003	32.03066
1946	5.63512	3.1454477	89.0479	7.119228	32.02908
1947	5.64005	3.1459233	88.8693	7.118351	32.02984
1948	5.64382	3.1461271	88.6841	7.117763	32.02864
1949	5.64875	3.1464916	88.5059	7.116946	32.02815
1950	5.65565	3.1468808	88.3215	7.115867	32.02607
1951	5.66329	3.1472082	88.1456	7.114726	32.02257
1952	5.67039	3.1474491	87.9669	7.113701	32.01863
1953	5.67663	3.1477085	87.7885	7.112774	32.01571
1954	5.68237	3.1478691	87.6069	7.111962	32.01216
1955	5.68962	3.1481656	87.4345	7.110888	32.00869
1956	5.69763	3.1485858	87.2529	7.109655	32.00591
1957	5.70236	3.1486907	87.0712	7.108999	32.00269
1958	5.70549	3.1489750	86.8957	7.108453	32.00300
1959	5.71118	3.1493087	86.7111	7.107557	32.00145
1960	5.71642	3.1495434	86.5294	7.106770	31.99920
1961	5.72085	3.1499637	86.3480	7.105988	31.99981
1962	5.72468	3.1503345	86.1693	7.105307	32.00043
1963	5.72786	3.1506250	85.9937	7.104752	32.00077
1964	5.73265	3.1510144	85.8149	7.103941	32.00070
1965	5.74041	3.1514347	85.6365	7.102741	31.99815
1966	5.74954	3.1516324	85.4550	7.101485	31.99180
1967	5.75675	3.1521208	85.2763	7.100319	31.99054
1968	5.76538	3.1525411	85.1039	7.099011	31.98717
1969	5.77476	3.1527203	84.9344	7.097735	31.98038
1970	5.78036	3.1533510	84.7344	7.096697	31.98225
1971	5.78611	3.1533076	84.5165	7.095992	31.97642
1972	5.79681	3.1532950	84.3351	7.094651	31.96623
1973	5.80686	3.1544948	84.1682	7.092760	31.97027
1974	5.80994	3.1539256	83.9927	7.092666	31.96105
1975	5.81050	3.1540431	83.8205	7.092531	31.96193
1976	5.81979	3.1549893	83.6480	7.090868	31.96383
1977	5.82868	3.1552428	83.4783	7.089617	31.95835
1978	5.83616	3.1553354	83.3117	7.088627	31.95240
1979	5.84369	3.1559044	83.1303	7.087383	31.95174
1980	5.85309	3.1563868	82.9576	7.085950	31.94835
1981	5.86052	3.1566651	82.7852	7.084870	31.94453
1982	5.86740	3.1570733	82.6099	7.083792	31.94269
1983	5.87357	3.1574073	82.4220	7.082842	31.94069
1984	5.88100	3.1577351	82.2466	7.081737	31.93742
1985	5.89132	3.1580691	82.0675	7.080267	31.93151
1986	5.89988	3.1583475	81.8950	7.079049	31.92663
1987	5.90858	3.1586072	81.7105	7.077821	31.92141
1988	5.91668	3.1588484	81.5472	7.076679	31.91655
1989	5.92468	3.1589968	81.3774	7.075598	31.91075
1990	5.93243	3.1592690	81.1989	7.074484	31.90657
1991	5.93780	3.1596464	81.0354	7.073614	31.90581
1992	5.94180	3.1600486	80.8508	7.072901	31.90663
1993	5.94666	3.1602899	80.6753	7.072165	31.90482
1994	5.95132	3.1606488	80.4966	7.071393	31.90453
1995	5.95700	3.1609520	80.3391	7.070523	31.90265
1996	5.96425	3.1611376	80.1606	7.069518	31.89798
1997	5.97246	3.1614037	79.9912	7.068352	31.89330
1998	5.98042	3.1615211	79.8098	7.067293	31.88720
1999	5.99127	3.1616757	79.6489	7.065855	31.87879
2000	5.99741	3.1620037	79.4736	7.064916	31.87677
2001	6.00101	3.1621213	79.3043	7.064403	31.87477
2002	6.00486	3.1622760	79.1254	7.063838	31.87296
2003	6.00887	3.1627278	78.9525	7.063101	31.87431
2004	6.01471	3.1628763	78.7803	7.062293	31.87056
2005	6.02252	3.1630867	78.5987	7.061206	31.86565
2006	6.03125	3.1635200	78.4261	7.059891	31.86236
2007	6.04156	3.1636932	78.2507	7.058514	31.85469
2008	6.05141	3.1637797	78.0871	7.057238	31.84648
2009	6.05888	3.1642007	77.9055	7.056088	31.84425
2010	6.06543	3.1643802	77.7270	7.055175	31.84018
2011	6.07158	3.1645968	77.5573	7.054295	31.83691
2012	6.07747	3.1649187	77.3849	7.053392	31.83504
2013	6.08189	3.1650734	77.2123	7.052758	31.83270
2014	6.08540	3.1651353	77.0400	7.052286	31.83018
2015	6.08820	3.1656183	76.8703	7.051687	31.83302
2016	6.09247	3.1655872	76.6857	7.051167	31.82875
2017	6.09857	3.1657172	76.5159	7.050338	31.82456
2018	6.10691	3.1660391	76.3375	7.049132	31.82041
2019	6.11433	3.1661319	76.1528	7.048157	31.81457
2020	6.12059	3.1661875	75.9922	7.047347	31.80941
2021	6.12608	3.1664290	75.8166	7.046536	31.80703
2022	6.12827	3.1667944	75.6200	7.046073	31.80914
2023	6.13000	3.1664784	75.4353	7.046015	31.80409
2024	6.13504	3.1671535	75.2688	7.045040	31.80696
2025	6.13550	3.1672154	75.0992	7.044948	31.80730
2026	6.13473	3.1672463	74.9237	7.045023	31.80844
2027	6.14267	3.1680577	74.7480	7.043618	31.81011
2028	6.15433	3.1684541	74.5787	7.041964	31.80368
2029	6.16344	3.1685778	74.3969	7.040765	31.79661
2030	6.17042	3.1688441	74.2183	7.039759	31.79313
2031	6.17781	3.1692963	74.0521	7.038608	31.79132
2032	6.18570	3.1695069	73.8734	7.037517	31.78636
2033	6.18902	3.1696555	73.6919	7.037026	31.78500
2034	6.19299	3.1700768	73.5159	7.036314	31.78604
2035	6.19931	3.1705043	73.3374	7.035309	31.78496
2036	6.20456	3.1708326	73.1680	7.034487	31.78378
2037	6.20599	3.1711362	72.9864	7.034151	31.78590
2038	6.20925	3.1715576	72.8165	7.033528	31.78761
2039	6.21955	3.1720719	72.6413	7.031986	31.78377
2040	6.22893	3.1722763	72.4688	7.030716	31.77735
2041	6.23801	3.1726171	72.3021	7.029414	31.77273
2042	6.24730	3.1730694	72.1265	7.028031	31.76916
2043	6.25465	3.1734909	71.9479	7.026903	31.76705
2044	6.26118	3.1737635	71.7752	7.025952	31.76406
2045	6.26424	3.1741850	71.5937	7.025355	31.76595
2046	6.27057	3.1744887	71.4244	7.024414	31.76349
2047	6.27711	3.1746994	71.2485	7.023495	31.75981
2048	6.28145	3.1751271	71.0700	7.022738	31.76058
2049	6.28906	3.1752448	70.8943	7.021733	31.75487
2050	6.29820	3.1755175	70.7217	7.020461	31.74945
2051	6.30586	3.1759701	70.5370	7.019281	31.74740
2052	6.31256	3.1762118	70.3586	7.018327	31.74392
2053	6.31532	3.1764536	70.1830	7.017860	31.74411
2054	6.31951	3.1767884	70.0013	7.017169	31.74399
2055	6.32534	3.1769991	69.8254	7.016339	31.74097
2056	6.33178	3.1771231	69.6439	7.015477	31.73643
2057	6.33802	3.1773338	69.4623	7.014597	31.73304
2058	6.34472	3.1776376	69.2807	7.013612	31.73024
2059	6.35126	3.1773336	69.1111	7.012954	31.72087
2060	6.35822	3.1776001	68.9447	7.011958	31.71742
2061	6.36395	3.1776931	68.7659	7.011200	31.71320
2062	6.36707	3.1775751	68.5934	7.010871	31.70907
2063	6.36937	3.1776371	68.4176	7.010552	31.70770
2064	6.37388	3.1774819	68.2453	7.010071	31.70188
2065	6.37787	3.1772709	68.0635	7.009681	31.69592
2066	6.38232	3.1771840	67.8941	7.009172	31.69090
2067	6.38749	3.1768800	67.7187	7.008685	31.68283
2068	6.39179	3.1763962	67.5339	7.008394	31.67358
2069	6.39476	3.1760612	67.3550	7.008193	31.66720
2070	6.39461	3.1757573	67.1827	7.008362	31.66407
2071	6.39277	3.1753666	67.0040	7.008782	31.66156
2072	6.39077	3.1748519	66.8221	7.009284	31.65781
2073	6.38882	3.1745976	66.6314	7.009649	31.65690
2074	6.38703	3.1740644	66.4376	7.010135	31.65277
2075	6.38591	3.1738226	66.2530	7.010392	31.65123
2076	6.38673	3.1732769	66.0836	7.010562	31.64453
2077	6.38468	3.1726446	65.9080	7.011130	31.63953
2078	6.37905	3.1724338	65.7203	7.011928	31.64252
2079	6.37756	3.1720495	65.5478	7.012301	31.63973
2080	6.37731	3.1716466	65.3718	7.012533	31.63561
2081	6.37531	3.1712561	65.1875	7.012972	31.63323
2082	6.37321	3.1708904	65.0025	7.013412	31.63123
2083	6.37193	3.1704069	64.8300	7.013811	31.62716
2084	6.37265	3.1700474	64.6576	7.013900	31.62260
2085	6.37439	3.1695950	64.4637	7.013909	31.61609
2086	6.37378	3.1691674	64.2884	7.014197	31.61202
2087	6.37337	3.1689257	64.1123	7.014366	31.60981
2088	6.37285	3.1684176	63.9248	7.014682	31.60476
2089	6.37127	3.1680830	63.7491	7.015043	31.60262
2090	6.36963	3.1680520	63.5675	7.015257	31.60388
2091	6.36953	3.1677112	63.3827	7.015438	31.60030
2092	6.36942	3.1674200	63.2040	7.015594	31.59727
2093	6.36840	3.1671783	63.0283	7.015839	31.59563
2094	6.36697	3.1669057	62.8377	7.016150	31.59404
2095	6.36748	3.1665773	62.6592	7.016249	31.59002
2096	6.36963	3.1663790	62.4802	7.016079	31.58592
2097	6.37147	3.1661250	62.2989	7.015976	31.58150
2098	6.37244	3.1660011	62.1324	7.015915	31.57931
2099	6.37163	3.1658524	61.9508	7.016087	31.57851
2100	6.36999	3.1655179	61.7721	7.016455	31.57642
2101	6.36825	3.1654621	61.5905	7.016694	31.57750
2102	6.36825	3.1653258	61.4118	7.016759	31.57608
2103	6.36850	3.1650408	61.2330	7.016868	31.57278
2104	6.36891	3.1648240	61.0483	7.016923	31.57009
2105	6.36932	3.1647682	60.8697	7.016896	31.56918
2106	6.36994	3.1645576	60.6911	7.016923	31.56637
2107	6.37122	3.1644956	60.5125	7.016792	31.56459
2108	6.37296	3.1644646	60.3368	7.016589	31.56271
2109	6.37429	3.1641611	60.1519	7.016574	31.55822
2110	6.37526	3.1642229	59.9765	7.016418	31.55809
2111	6.37756	3.1640123	59.8008	7.016236	31.55371
2112	6.37889	3.1639256	59.6131	7.016111	31.55161
2113	6.37874	3.1637335	59.4312	7.016223	31.54972
2114	6.37874	3.1638326	59.2590	7.016170	31.55089
2115	6.37971	3.1636839	59.0832	7.016121	31.54843
2116	6.38125	3.1635909	58.8955	7.015974	31.54608
2117	6.38294	3.1633803	58.7136	7.015867	31.54227
2118	6.38519	3.1632564	58.5291	7.015647	31.53891
2119	6.38775	3.1634111	58.3536	7.015249	31.53833
2120	6.38975	3.1633491	58.1809	7.015029	31.53588
2121	6.39138	3.1633491	58.0019	7.014823	31.53445
2122	6.39379	3.1632871	57.8147	7.014553	31.53163
2123	6.39635	3.1632251	57.6388	7.014264	31.52866
2124	6.40004	3.1634417	57.4480	7.013694	31.52773
2125	6.40342	3.1634726	57.2482	7.013257	31.52504
2126	6.40839	3.1633486	57.0543	7.012701	31.51918
2127	6.41633	3.1637386	56.8758	7.011519	31.51623
2128	6.42176	3.1630202	56.7003	7.011206	31.50337
2129	6.42452	3.1633854	56.5154	7.010677	31.50493
2130	6.43032	3.1636825	56.3187	7.009807	31.50295
2131	6.43811	3.1636205	56.1339	7.008872	31.49516
2132	6.44738	3.1639485	55.9492	7.007557	31.49030
2133	6.45641	3.1638926	55.7643	7.006467	31.48145
2134	6.46251	3.1639235	55.5767	7.005694	31.47625
2135	6.46815	3.1642825	55.4012	7.004814	31.47509
2136	6.47354	3.1645239	55.2256	7.004024	31.47286
2137	6.47924	3.1645238	55.0437	7.003318	31.46770
2138	6.48632	3.1648209	54.8679	7.002291	31.46453
2139	6.49591	3.1650623	54.6744	7.000982	31.45843
2140	6.50557	3.1651612	54.4776	6.999738	31.45073
2141	6.51440	3.1652478	54.3081	6.998603	31.44363
2142	6.52405	3.1651547	54.1142	6.997455	31.43381
2143	6.53551	3.1653651	53.9326	6.995935	31.42568
2144	6.54635	3.1656994	53.7538	6.994428	31.41947
2145	6.55463	3.1657055	53.5691	6.993402	31.41202
2146	6.56141	3.1657549	53.3938	6.992538	31.40641
2147	6.56876	3.1660583	53.2058	6.991477	31.40308
2148	6.57704	3.1660272	53.0240	6.990470	31.39522
2149	6.58424	3.1659651	52.8423	6.989611	31.38801
2150	6.59057	3.1660579	52.6608	6.988783	31.38331
2151	6.59705	3.1660516	52.4761	6.987984	31.37738
2152	6.60266	3.1660886	52.2884	6.987272	31.37274
2153	6.60997	3.1661752	52.1098	6.986326	31.36707
2154	6.61898	3.1660883	51.9186	6.985258	31.35795
2155	6.62825	3.1662368	51.7311	6.984041	31.35118
2156	6.63747	3.1664039	51.5583	6.982821	31.34465
2157	6.64396	3.1662056	51.3616	6.982118	31.33663
2158	6.64880	3.1660259	51.1680	6.981608	31.33032
2159	6.65488	3.1662673	50.9891	6.980737	31.32748
2160	6.66044	3.1659389	50.8105	6.980213	31.31888
2161	6.66513	3.1659388	50.6291	6.979634	31.31468
2162	6.67075	3.1659882	50.4380	6.978915	31.31017
2163	6.67797	3.1656351	50.2504	6.978200	31.29980
2164	6.68580	3.1656349	50.0747	6.977234	31.29272
2165	6.69364	3.1654552	49.8810	6.976357	31.28369
2166	6.70128	3.1653931	49.6870	6.975447	31.27613
2167	6.70804	3.1653187	49.5026	6.974651	31.26924
2168	6.71454	3.1648788	49.3178	6.974067	31.25858
2169	6.72310	3.1646681	49.1298	6.973117	31.24856
2170	6.72883	3.1645503	48.9451	6.972468	31.24214
2171	6.73430	3.1646060	48.7604	6.971765	31.23785
2172	6.73942	3.1643953	48.5695	6.971239	31.23098
2173	6.74339	3.1641723	48.3787	6.970858	31.22501
2174	6.74840	3.1642465	48.1972	6.970203	31.22135
2175	6.75651	3.1638872	48.0093	6.969382	31.21013
2176	6.76183	3.1635836	47.8155	6.968876	31.20207
2177	6.76622	3.1638870	47.6276	6.968184	31.20147
2178	6.77097	3.1634720	47.4404	6.967802	31.19271
2179	6.77599	3.1632242	47.2582	6.967306	31.18553
2180	6.77883	3.1632241	47.0618	6.966954	31.18304
2181	6.78265	3.1629825	46.8648	6.966600	31.17702
2182	6.78513	3.1630382	46.6738	6.966265	31.17546
2183	6.79072	3.1626789	46.4864	6.965754	31.16656
2184	6.79609	3.1624683	46.3014	6.965195	31.15947
2185	6.80044	3.1620782	46.1228	6.964852	31.15135
2186	6.80344	3.1621648	45.9320	6.964437	31.14966
2187	6.80592	3.1617747	45.7501	6.964322	31.14324
2188	6.80876	3.1619541	45.5658	6.963881	31.14270
2189	6.81316	3.1617250	45.3777	6.963452	31.13631
2190	6.81730	3.1616258	45.1868	6.962990	31.13156
2191	6.81994	3.1616257	44.9932	6.962662	31.12926
2192	6.82314	3.1616566	44.8054	6.962250	31.12677
2193	6.82723	3.1613222	44.6207	6.961911	31.11951
2194	6.83422	3.1612168	44.4299	6.961103	31.11212
2195	6.84369	3.1611734	44.2450	6.959960	31.10316
2196	6.85124	3.1609937	44.0543	6.959120	31.09445
2197	6.85590	3.1610555	43.8666	6.958515	31.09099
2198	6.86362	3.1609935	43.6789	6.957597	31.08342
2199	6.87175	3.1607395	43.4910	6.956723	31.07339
2200	6.87817	3.1607208	43.3034	6.955942	31.06747
2201	6.88688	3.1605721	43.1124	6.954946	31.05808
2202	6.89419	3.1602996	42.9126	6.954182	31.04861
2203	6.89978	3.1603305	42.7249	6.953478	31.04397
2204	6.90590	3.1605779	42.5340	6.952604	31.04123
2205	6.91098	3.1601198	42.3495	6.952204	31.03175
2206	6.91228	3.1599959	42.1586	6.952102	31.02932
2207	6.91414	3.1598783	41.9800	6.951928	31.02644
2208	6.91668	3.1596987	41.7800	6.951701	31.02229
2209	6.92223	3.1596862	41.6012	6.951025	31.01723
2210	6.93063	3.1593642	41.4044	6.950152	31.00625
2211	6.93805	3.1589433	41.2197	6.949447	30.99508
2212	6.94485	3.1588565	41.0230	6.948655	30.98811
2213	6.95398	3.1588254	40.8290	6.947550	30.97964
2214	6.96063	3.1586767	40.6295	6.946806	30.97213
2215	6.96452	3.1584848	40.4413	6.946421	30.96663
2216	6.96774	3.1583115	40.2536	6.946108	30.96194
2217	6.97215	3.1581010	40.0628	6.945668	30.95578
2218	6.97683	3.1581627	39.8629	6.945063	30.95234
2219	6.98218	3.1578594	39.6812	6.944554	30.94433
2220	6.98737	3.1575314	39.4905	6.944076	30.93619
2221	6.99210	3.1578344	39.2964	6.943347	30.93532
2222	6.99911	3.1574383	39.1119	6.942680	30.92481
2223	7.00732	3.1569617	38.9210	6.941906	30.91236
2224	7.01522	3.1571410	38.7271	6.940850	30.90730
2225	7.02005	3.1569244	38.5302	6.940361	30.90071
2226	7.02442	3.1568376	38.3274	6.939866	30.89595
2227	7.02993	3.1562683	38.1215	6.939467	30.88494
2228	7.03638	3.1565961	37.9247	6.938516	30.88280
2229	7.04533	3.1563547	37.7277	6.937538	30.87226
2230	7.04876	3.1547091	37.5462	6.937917	30.85146
2231	7.05126	3.1547647	37.3521	6.937581	30.84991
2232	7.05953	3.1542264	37.1553	6.936830	30.83678
2233	7.06707	3.1545850	36.9584	6.935731	30.83400
2234	7.07431	3.1542633	36.7677	6.935001	30.82414
2235	7.07983	3.1538055	36.5678	6.934546	30.81435
2236	7.08472	3.1538053	36.3830	6.933945	30.81006
2237	7.09071	3.1533847	36.1919	6.933416	30.80025
2238	7.09602	3.1531743	35.9863	6.932866	30.79333
2239	7.10019	3.1530258	35.7983	6.932426	30.78809
2240	7.10592	3.1521846	35.5956	6.932132	30.77398
2241	7.11259	3.1517950	35.4047	6.931504	30.76391
2242	7.11826	3.1514053	35.2108	6.930996	30.75473
2243	7.12051	3.1504778	35.0140	6.931169	30.74281
2244	7.12129	3.1503665	34.8232	6.931124	30.74099
2245	7.12165	3.1498471	34.6323	6.931328	30.73515
2246	7.12056	3.1487653	34.4355	6.931982	30.72453
2247	7.12066	3.1483141	34.2447	6.932185	30.71965
2248	7.12332	3.1470471	34.0538	6.932471	30.70370
2249	7.12447	3.1467627	33.8571	6.932465	30.69970
2250	7.12488	3.1458296	33.6691	6.932864	30.68934
2251	7.12785	3.1453538	33.4690	6.932728	30.68165
2252	7.12947	3.1450571	33.2754	6.932671	30.67710
2253	7.13135	3.1437350	33.0784	6.933079	30.66126
2254	7.13338	3.1429628	32.8819	6.933201	30.65121
2255	7.13333	3.1421537	32.6816	6.933596	30.64262
2256	7.13447	3.1406591	32.4847	6.934177	30.62556
2257	7.13593	3.1397514	32.2972	6.934435	30.61456
2258	7.13760	3.1386894	32.1094	6.934743	30.60171
2259	7.13750	3.1377017	31.9123	6.935231	30.59124
2260	7.13645	3.1367449	31.7187	6.935818	30.58193
2261	7.13672	3.1359117	31.5338	6.936187	30.57280
2262	7.13593	3.1346589	31.3339	6.936886	30.56007
2263	7.13604	3.1338876	31.1339	6.937244	30.55175
2264	7.13630	3.1326351	30.9403	6.937816	30.53810
2265	7.13520	3.1316975	30.7465	6.938401	30.52904
2266	7.13484	3.1309388	30.5555	6.938810	30.52127
2267	7.13546	3.1292983	30.3678	6.939525	30.50311
2268	7.13692	3.1287432	30.1650	6.939612	30.49593
2269	7.13817	3.1284965	29.9738	6.939574	30.49225
2270	7.13885	3.1272449	29.7771	6.940095	30.47824
2271	7.13901	3.1265359	29.5832	6.940416	30.47055
2272	7.13958	3.1269242	29.3925	6.940153	30.47431
2273	7.14115	3.1246004	29.2016	6.941085	30.44797
2274	7.14021	3.1237129	29.0077	6.941627	30.43932
2275	7.14052	3.1239101	28.8021	6.941488	30.44126
2276	7.14198	3.1227331	28.6050	6.941877	30.42738
2277	7.14328	3.1220183	28.4049	6.942059	30.41862
2278	7.14412	3.1218703	28.2142	6.942025	30.41637
2279	7.14673	3.1211248	27.9992	6.942063	30.40614
2280	7.14647	3.1219010	27.7933	6.941714	30.41482
2281	7.14344	3.1218086	27.5932	6.942126	30.41658
2282	7.13718	3.1196834	27.3903	6.943920	30.39928
2283	7.12363	3.1176635	27.1905	6.946561	30.38953
2284	7.11154	3.1164198	26.9967	6.948646	30.38685
2285	7.10998	3.1144929	26.7997	6.949771	30.36754
2286	7.11493	3.1135572	26.6026	6.949613	30.35318
2287	7.11910	3.1141049	26.4027	6.948831	30.35551
2288	7.12400	3.1146403	26.2028	6.947964	30.35706
2289	7.12947	3.1141478	25.9970	6.947527	30.34703
2290	7.13645	3.1135444	25.8028	6.946958	30.33448
2291	7.14459	3.1136366	25.6092	6.945910	30.32842
2292	7.15283	3.1128980	25.4092	6.945252	30.31331
2293	7.15830	3.1120055	25.2064	6.945008	30.29899
2294	7.16342	3.1133347	25.0214	6.943731	30.30890
2295	7.16790	3.1120546	24.8217	6.943797	30.29127
2296	7.16801	3.1108547	24.6219	6.944362	30.27835
2297	7.16649	3.1117099	24.4280	6.944129	30.28897
2298	7.16827	3.1104977	24.2278	6.944495	30.27446
2299	7.17108	3.1099685	24.0251	6.944401	30.26638
2300	7.17369	3.1101468	23.8252	6.943990	30.26610
2301	7.17698	3.1098515	23.6250	6.943725	30.26013
2302	7.17969	3.1109957	23.4255	6.942833	30.27016
2303	7.18554	3.1102327	23.2317	6.942481	30.25691
2304	7.19123	3.1102633	23.0374	6.941763	30.25235
2305	7.19749	3.1113707	22.8408	6.940454	30.25886
2306	7.20454	3.1104415	22.6347	6.940034	30.24279
2307	7.20976	3.1103798	22.4379	6.939419	30.23765
2308	7.21655	3.1103366	22.2469	6.938603	30.23133
2309	7.22183	3.1088171	22.0410	6.938685	30.21048
2310	7.22679	3.1098197	21.8441	6.937588	30.21700
2311	7.23369	3.1084970	21.6472	6.937376	30.19685
2312	7.23850	3.1080171	21.4473	6.937014	30.18759
2313	7.24775	3.1080785	21.2472	6.935845	30.18026
2314	7.25580	3.1089948	21.0504	6.934411	30.18316
2315	7.26119	3.1081643	20.8595	6.934147	30.16963
2316	7.26720	3.1097574	20.6535	6.932638	30.18158
2317	7.27688	3.1093697	20.4507	6.931634	30.16907
2318	7.28666	3.1090804	20.2506	6.930570	30.15752
2319	7.29299	3.1081945	20.0539	6.930217	30.14259
2320	7.30163	3.1066876	19.8538	6.929880	30.11901
2321	7.31477	3.1063062	19.6814	6.928449	30.10357
2322	7.32372	3.1078988	19.5146	6.926583	30.11292
2323	7.32749	3.1082186	19.3419	6.925964	30.11314
2324	7.33174	3.1068962	19.1782	6.926076	30.09536
2325	7.33352	3.1063919	19.0331	6.926097	30.08848
2326	7.33938	3.1073388	18.8906	6.924921	30.09358
2327	7.34861	3.1080583	18.7452	6.923444	30.09334
2328	7.35353	3.1065391	18.6056	6.923567	30.07286
2329	7.35647	3.1077813	18.4606	6.922609	30.08367
2330	7.36679	3.1076582	18.3150	6.921401	30.07346
2331	7.37759	3.1075104	18.1756	6.920147	30.06256
2332	7.38913	3.1079531	18.0271	6.918521	30.05736
2333	7.40020	3.1076577	17.8818	6.917305	30.04467
2334	7.41002	3.1078359	17.7335	6.916017	30.03814
2335	7.41831	3.1074237	17.5667	6.915197	30.02662
2336	7.42550	3.1090228	17.4183	6.913551	30.03755
2337	7.43038	3.1055357	17.2731	6.914618	29.99614
2338	7.40860	3.1050317	17.1306	6.917520	30.00966
2339	7.40608	3.1047612	16.9819	6.917955	30.00901
2340	7.42099	3.1037958	16.8395	6.916591	29.98587
2341	7.43196	3.1030273	16.6944	6.915613	29.96824
2342	7.44083	3.1039184	16.5459	6.914099	29.97015
2343	7.45544	3.1038506	16.3883	6.912343	29.95689
2344	7.46668	3.1036784	16.2489	6.911048	29.94541
2345	7.47662	3.1039180	16.1036	6.909717	29.93946
2346	7.48598	3.1035305	15.9612	6.908756	29.92732
2347	7.49544	3.1034689	15.8125	6.907626	29.91857
2348	7.50433	3.1020797	15.6672	6.907199	29.89618
2349	7.51096	3.1016125	15.5188	6.906609	29.88556
2350	7.51685	3.1020856	15.3826	6.905662	29.88559
2351	7.52511	3.1006843	15.2280	6.905316	29.86363
2352	7.53517	3.1001127	15.0887	6.904358	29.84896
2353	7.54106	3.0983186	14.9401	6.904487	29.82487
2354	7.54407	3.0983493	14.8008	6.904103	29.82268
2355	7.54865	3.0968135	14.6614	6.904271	29.80247
2356	7.55128	3.0963467	14.5161	6.904168	29.79531
2357	7.55412	3.0954622	14.3707	6.904238	29.78353
2358	7.55807	3.0952841	14.2222	6.903837	29.77831
2359	7.56076	3.0941296	14.0588	6.904053	29.76381
2360	7.56387	3.0936690	13.8950	6.903889	29.75632
2361	7.56924	3.0937610	13.7104	6.903185	29.75278
2362	7.57472	3.0915263	13.5283	6.903572	29.72442
2363	7.57968	3.0915876	13.3494	6.902934	29.72091
2364	7.58632	3.0902372	13.1589	6.902760	29.70097
2365	7.59011	3.0888932	12.9802	6.902929	29.68353
2366	7.59159	3.0883900	12.7951	6.902984	29.67700
2367	7.59143	3.0871261	12.6045	6.903599	29.66380
2368	7.58769	3.0876598	12.4287	6.903800	29.67274
2369	7.58932	3.0847277	12.2440	6.904986	29.64028
2370	7.58890	3.0835134	12.0620	6.905610	29.62782
2371	7.58648	3.0826795	11.8804	6.906299	29.62111
2372	7.58563	3.0843167	11.6985	6.905622	29.63929
2373	7.58864	3.0824954	11.5168	6.906114	29.61747
2374	7.58980	3.0813059	11.3318	6.906533	29.60393
2375	7.58674	3.0816002	11.1470	6.906764	29.60974
2376	7.58779	3.0817105	10.9593	6.906579	29.61009
2377	7.58795	3.0816246	10.7775	6.906597	29.60912
2378	7.58695	3.0802146	10.5926	6.907384	29.59508
2379	7.58732	3.0806314	10.4079	6.907138	29.59927
2380	7.58458	3.0830285	10.2261	6.906333	29.62715
2381	7.57783	3.0829917	10.0443	6.907173	29.63258
2382	7.57082	3.0832309	9.8657	6.907914	29.64117
2383	7.56440	3.0830837	9.6779	6.908767	29.64517
2384	7.55907	3.0827097	9.5021	6.909593	29.64581
2385	7.55418	3.0809256	9.3264	6.911037	29.63110
2386	7.54559	3.0796568	9.1295	6.912688	29.62501
2387	7.52822	3.0783822	8.9386	6.915421	29.62635
2388	7.51917	3.0778062	8.7569	6.916802	29.62802
2389	7.52027	3.0757842	8.5660	6.917625	29.60565
2390	7.52696	3.0771810	8.3812	6.916136	29.61489
2391	7.54075	3.0769725	8.2025	6.914540	29.60100
2392	7.55449	3.0763351	8.0116	6.913153	29.58261
2393	7.56434	3.0762676	7.8359	6.911974	29.57358
2394	7.57372	3.0767453	7.6568	6.910594	29.57076
2395	7.58421	3.0757833	7.4632	6.909761	29.55171
2396	7.59507	3.0754033	7.2843	6.908607	29.53853
2397	7.60593	3.0768919	7.0906	6.906567	29.54519
2398	7.61221	3.0749374	6.8964	6.906720	29.51920
2399	7.61896	3.0726589	6.7120	6.906968	29.48939
2400	7.62777	3.0714647	6.5331	6.906450	29.46934
2401	7.63758	3.0719850	6.3575	6.904998	29.46662
2402	7.64492	3.0724258	6.1755	6.903887	29.46516
2403	7.64920	3.0711827	5.9937	6.903948	29.44844
2404	7.65067	3.0708520	5.8028	6.903919	29.44377
2405	7.65131	3.0678953	5.6240	6.905236	29.41199
2406	7.65120	3.0686114	5.4483	6.904907	29.41974
2407	7.65643	3.0698355	5.2576	6.903684	29.42837
2408	7.66108	3.0686663	5.0696	6.903664	29.41214
2409	7.66303	3.0679684	4.8881	6.903750	29.40318
2410	7.66858	3.0667321	4.7093	6.903651	29.38548
2411	7.67101	3.0668055	4.5243	6.903315	29.38429
2412	7.67671	3.0653797	4.3547	6.903286	29.36445
2413	7.68437	3.0648289	4.1697	6.902603	29.35225
2414	7.68966	3.0657343	3.9851	6.901525	29.35745
2415	7.69092	3.0737046	3.8093	6.897607	29.44081
2416	7.68685	3.0784097	3.6306	6.895882	29.49415
2417	7.68099	3.0795618	3.4365	6.896052	29.51140
2418	7.67660	3.0780297	3.2547	6.897307	29.49896
2419	7.67132	3.0762773	3.0789	6.898777	29.48495
2420	7.66852	3.0732452	2.8942	6.900547	29.45528
2421	7.67079	3.0702142	2.7215	6.901697	29.42133
2422	7.67597	3.0669150	2.5491	6.902617	29.38211
2423	7.69224	3.0603023	2.3793	6.903739	29.29849
2424	7.71503	3.0535605	2.2064	6.904119	29.20815
2425	7.73873	3.0469281	2.0367	6.904329	29.11834
2426	7.75709	3.0342589	1.8581	6.908028	28.96944
2427	7.77811	3.0020876	1.6824	6.920556	28.61325
2428	7.80147	2.9728694	1.5005	6.931381	28.28712
2429	7.82108	2.9381622	1.3312	6.945229	27.90733
2430	7.83816	2.8854873	1.1794	6.967813	27.34275
2431	7.85211	2.8524755	1.0398	6.981542	26.98742
2432	7.86214	2.8344922	0.9158	6.988704	26.79236
2433	7.86915	2.8535533	0.7886	6.978861	26.98560
2434	7.86824	2.9468436	0.6521	6.935241	27.96082
2435	7.86442	2.9572252	0.4976	6.930854	28.07267
2436	7.86723	2.9219138	0.3461	6.947041	27.70092
2437	7.86214	2.9653359	0.1797	6.927334	28.15961
2438	7.85551	3.0518175	0.0007	6.887677	29.07339
2439	7.79103	3.0162376	-0.0327	6.912276	28.75228
2440	7.73201	3.0345939	-0.0266	6.910924	28.99462
2441	7.73899	3.0120735	-0.0297	6.920668	28.75131
2442	7.77604	2.9854109	-0.0237	6.928622	28.44022
2443	7.81626	2.9668531	-0.0268	6.932336	28.21263
2444	7.85041	1.7153380	-0.0267	7.520277	15.47165
2445	7.86182	0.6760557	-0.0266	8.009363	5.66228
2446	7.85752	0.6894029	-0.0268	8.003967	5.78290
2447	7.85317	0.6409310	-0.0267	8.027249	5.34901
2448	7.84712	0.5632868	-0.0268	8.064220	4.65952
2449	7.84028	0.5231710	-0.0238	8.083943	4.30667
2450	7.83301	0.4837794	-0.0269	8.103358	3.96228
2451	7.82601	0.4450153	-0.0240	8.122374	3.62542
2452	7.81917	0.4127872	-0.0271	8.138329	3.34711
2453	7.81265	0.3924622	-0.0239	8.148794	3.17261
2454	7.80645	0.3728137	-0.0301	8.158872	3.00451
2455	7.80046	0.3533354	-0.0271	8.168813	2.83846
2456	7.79506	0.3429061	-0.0242	8.174557	2.74998
2457	7.78955	0.3334708	-0.0272	8.179871	2.67014
2458	7.78388	0.3195046	-0.0244	8.187241	2.55204
2459	7.77874	0.3049717	-0.0244	8.194750	2.42946
2460	7.77318	0.3060751	-0.0183	8.195350	2.43916
2461	7.76387	0.3030044	-0.0304	8.198554	2.41387
2462	7.75661	0.2692663	-0.0274	8.215018	2.13058
2463	7.75206	0.2497803	-0.0244	8.224557	1.96806
2464	7.74809	0.2314536	-0.0244	8.233436	1.81597
2465	7.74439	0.2452224	-0.0245	8.228094	1.93053
2466	7.74111	0.2557863	-0.0245	8.224068	2.01877
2467	7.73751	0.2179783	-0.0278	8.241470	1.70502
2468	7.73391	0.2066778	-0.0308	8.247146	1.61205
2469	7.73031	0.2147145	-0.0276	8.244338	1.67843
2470	7.72661	0.2242197	-0.0277	8.240895	1.75715
2471	7.72349	0.2368540	-0.0309	8.235942	1.86208
2472	7.72058	0.2359532	-0.0309	8.236919	1.85475
2473	7.71746	0.2025226	-0.0338	8.252250	1.57862
2474	7.71471	0.2036239	-0.0370	8.252316	1.58780
2475	7.71196	0.2254018	-0.0339	8.243291	1.76768
2476	7.70979	0.1982465	-0.0311	8.255654	1.54383
2477	7.70757	0.1864018	-0.0248	8.261275	1.44687
2478	7.70546	0.1794061	-0.0309	8.264748	1.38981
2479	7.70361	0.1971643	-0.0189	8.257365	1.53522
2480	7.70223	0.2176769	-0.0192	8.248633	1.70425
2481	7.70038	0.2362876	-0.0312	8.240788	1.85859
2482	7.69890	0.2249160	-0.0249	8.246106	1.76431
2483	7.69737	0.2112792	-0.0311	8.252418	1.65166
2484	7.69616	0.2153812	-0.0254	8.250856	1.68557
2485	7.69441	0.2211887	-0.0345	8.248646	1.73367
2486	7.69283	0.2208292	-0.0345	8.249121	1.73078
2487	7.69156	0.1936321	-0.0314	8.261322	1.50676
2488	7.68997	0.1654475	-0.0314	8.273923	1.27680
2489	7.68860	0.1616622	-0.0253	8.275841	1.24614
2490	7.68733	0.1748299	-0.0284	8.270376	1.35321
2491	7.68611	0.1589776	-0.0286	8.277503	1.22447
2492	7.68469	0.1381031	-0.0286	8.286796	1.05618
2493	7.68368	0.1201651	-0.0346	8.294679	0.91279
2494	7.68263	0.1081233	-0.0257	8.300015	0.81724
2495	7.68194	0.1004451	-0.0257	8.303405	0.75663
2496	7.68057	0.0969039	-0.0290	8.305179	0.72879
2497	7.67977	0.1004160	-0.0318	8.303856	0.75645
2498	7.67856	0.1003644	-0.0257	8.304124	0.75607
2499	7.67713	0.0984191	-0.0257	8.305235	0.74078
2500	7.67460	0.0970586	-0.0259	8.306324	0.73013
2501	7.67127	0.0968266	-0.0320	8.307097	0.72838
2502	7.66831	0.1072167	-0.0259	8.303299	0.81040
2503	7.66520	0.1296759	-0.0259	8.294348	0.98920
2504	7.66266	0.1326583	-0.0259	8.293581	1.01316
2505	7.66034	0.1303329	-0.0231	8.295048	0.99460
2506	7.65801	0.1627853	-0.0262	8.281505	1.25634
2507	7.65548	0.1979104	-0.0261	8.266672	1.54346
2508	7.65395	0.2090670	-0.0322	8.262071	1.63544
2509	7.65221	0.2206223	-0.0292	8.257320	1.73107
2510	7.65089	0.2097017	-0.0264	8.262404	1.64082
2511	7.64983	0.2017214	-0.0233	8.266129	1.57507
2512	7.64856	0.2314094	-0.0324	8.253273	1.82077
2513	7.64740	0.1816791	-0.0293	8.275405	1.41069
2514	7.64677	0.1771986	-0.0324	8.277490	1.37411
2515	7.64529	0.1837202	-0.0295	8.274936	1.42748
2516	7.64471	0.1952667	-0.0358	8.269991	1.52220
2517	7.64344	0.2083007	-0.0295	8.264511	1.62960
2518	7.64270	0.1912912	-0.0327	8.272138	1.48964
