Scan Count	Temperature [ITS-90, deg C]	Conductivity [S/m]	Depth [salt water, m]	Oxygen Saturation, Weiss [ml/l]	Salinity, Practical [PSU]
1	8.50654	0.0000830	-0.1587	8.177627	0.00434
2	8.50665	0.0000830	-0.1589	8.177606	0.00434
3	8.50789	0.0000922	-0.1558	8.177358	0.00437
4	8.51059	0.0001385	-0.1559	8.176815	0.00455
5	8.51269	0.0001632	-0.1559	8.176392	0.00465
6	8.51339	0.0001878	-0.1618	8.176248	0.00476
7	8.51339	0.0002249	-0.1588	8.176239	0.00494
8	8.51339	0.0002773	-0.1590	8.176225	0.00519
9	8.51377	0.0003266	-0.1590	8.176138	0.00544
10	8.51350	0.0003667	-0.1528	8.176180	0.00565
11	8.51355	0.0004007	-0.1590	8.176160	0.00583
12	8.51382	0.0004469	-0.1560	8.176094	0.00607
13	8.51388	0.0004901	-0.1529	8.176070	0.00631
14	8.51712	0.0005086	-0.1590	8.175424	0.00641
15	8.52289	0.0005518	-0.1530	8.174268	0.00666
16	8.52569	0.0007030	-0.1590	8.173668	0.00751
17	8.52364	0.0006752	-0.1591	8.174082	0.00735
18	8.52235	0.0006876	-0.1562	8.174335	0.00742
19	8.52219	0.0006660	-0.1501	8.174373	0.00730
20	8.52186	0.0006598	-0.1561	8.174439	0.00726
21	8.52170	0.0006505	-0.1501	8.174474	0.00721
22	8.52138	0.0006505	-0.1530	8.174538	0.00721
23	8.52154	0.0006413	-0.1531	8.174509	0.00716
24	8.52159	0.0006351	-0.1560	8.174500	0.00712
25	8.52159	0.0006166	-0.1532	8.174506	0.00702
26	8.52154	0.0006073	-0.1530	8.174519	0.00697
27	8.52122	0.0005796	-0.1593	8.174591	0.00681
28	8.52073	0.0005518	-0.1501	8.174696	0.00665
29	8.51965	0.0005611	-0.1531	8.174907	0.00671
30	8.51954	0.0005549	-0.1531	8.174930	0.00667
31	8.52402	0.0005456	-0.1592	8.174046	0.00662
32	8.53061	0.0005395	-0.1470	8.172744	0.00659
33	8.53687	0.0005364	-0.1533	8.171506	0.00658
34	8.54135	0.0005456	-0.1531	8.170617	0.00663
35	8.54405	0.0005395	-0.1500	8.170085	0.00660
36	8.54901	0.0005364	-0.1533	8.169103	0.00658
37	8.55398	0.0005395	-0.1531	8.168120	0.00660
38	8.55933	0.0005456	-0.1502	8.167061	0.00664
39	8.56321	0.0005456	-0.1533	8.166293	0.00664
40	8.56500	0.0005487	-0.1564	8.165939	0.00666
41	8.56473	0.0005888	-0.1563	8.165981	0.00688
42	8.56500	0.0005642	-0.1561	8.165935	0.00674
43	8.56678	0.0005611	-0.1532	8.165583	0.00673
44	8.56727	0.0005518	-0.1563	8.165490	0.00668
45	8.56781	0.0005549	-0.1593	8.165382	0.00669
46	8.56932	0.0005703	-0.1501	8.165079	0.00678
47	8.57429	0.0005796	-0.1503	8.164094	0.00683
48	8.57937	0.0006073	-0.1502	8.163083	0.00699
49	8.58347	0.0006875	-0.1502	8.162248	0.00745
50	8.58380	0.0010146	-0.1503	8.162084	0.00936
51	8.58185	0.0010948	-0.1540	8.162443	0.00984
52	8.58250	0.0011318	-0.1564	8.162303	0.01006
53	8.58499	0.0011411	-0.1533	8.161809	0.01012
54	8.58807	0.0011750	-0.1501	8.161190	0.01033
55	8.59142	0.0011874	-0.1564	8.160525	0.01040
56	8.59391	0.0011565	-0.1533	8.160044	0.01022
57	8.59515	0.0010856	-0.1564	8.159821	0.00979
58	8.59488	0.0010516	-0.1563	8.159885	0.00959
59	8.59445	0.0010053	-0.1564	8.159984	0.00931
60	8.59466	0.0009745	-0.1502	8.159951	0.00913
61	8.59682	0.0009344	-0.1533	8.159537	0.00889
62	8.59947	0.0009035	-0.1474	8.159024	0.00871
63	8.60099	0.0008819	-0.1473	8.158732	0.00858
64	8.59872	0.0008634	-0.1502	8.159185	0.00847
65	8.58899	0.0008418	-0.1503	8.161113	0.00834
66	8.57586	0.0008295	-0.1534	8.163710	0.00827
67	8.56565	0.0008079	-0.1502	8.165734	0.00814
68	8.55760	0.0008387	-0.1533	8.167315	0.00831
69	8.55177	0.0009004	-0.1532	8.168449	0.00867
70	8.54853	0.0009498	-0.1563	8.169075	0.00896
71	8.54761	0.0010146	-0.1502	8.169236	0.00935
72	8.54691	0.0011658	-0.1502	8.169327	0.01026
73	8.54647	0.0012553	-0.1594	8.169384	0.01080
74	8.55015	0.0012213	-0.1530	8.168669	0.01059
75	8.55474	0.0011966	-0.1474	8.167769	0.01045
76	8.55835	0.0011411	-0.1504	8.167071	0.01011
77	8.56284	0.0010701	-0.1595	8.166208	0.00969
78	8.56764	0.0010146	-0.1533	8.165275	0.00936
79	8.57240	0.0009806	-0.1563	8.164346	0.00916
80	8.57769	0.0009282	-0.1594	8.163316	0.00885
81	8.58277	0.0008819	-0.1562	8.162327	0.00858
82	8.58823	0.0008541	-0.1535	8.161258	0.00841
83	8.59347	0.0008325	-0.1594	8.160230	0.00829
84	8.59726	0.0008017	-0.1623	8.159492	0.00811
85	8.60028	0.0007770	-0.1534	8.158902	0.00797
86	8.60277	0.0007678	-0.1534	8.158414	0.00792
87	8.60418	0.0007400	-0.1594	8.158145	0.00776
88	8.60472	0.0007307	-0.1533	8.158041	0.00771
89	8.60461	0.0007215	-0.1563	8.158066	0.00765
90	8.60347	0.0006999	-0.1534	8.158296	0.00753
91	8.60174	0.0006875	-0.1533	8.158641	0.00746
92	8.59980	0.0006783	-0.1593	8.159028	0.00740
93	8.59731	0.0006505	-0.1594	8.159527	0.00724
94	8.59277	0.0006413	-0.1563	8.160426	0.00719
95	8.58407	0.0006351	-0.1503	8.162146	0.00715
96	8.57375	0.0006228	-0.1535	8.164188	0.00708
97	8.56635	0.0006166	-0.1473	8.165653	0.00704
98	8.56240	0.0006043	-0.1504	8.166435	0.00697
99	8.55852	0.0005981	-0.1501	8.167206	0.00693
100	8.54232	0.5181371	-0.0838	7.954539	4.17835
101	8.34598	2.4321896	0.1042	7.111809	22.33419
102	8.11299	2.7582646	0.3131	6.992046	25.81469
103	7.95188	2.7847130	0.4919	7.000503	26.20742
104	7.85291	2.7900699	0.6313	7.010756	26.33729
105	7.79914	2.7781825	0.6796	7.023306	26.25410
106	7.77769	2.7830560	0.6643	7.023785	26.32099
107	7.77890	2.7836403	0.6432	7.023351	26.32616
108	7.78478	2.7809374	0.6191	7.023865	26.29360
109	7.78706	2.7810377	0.6008	7.023522	26.29294
110	7.78039	2.7837229	0.5798	7.023119	26.32593
111	7.77329	2.7873892	0.5614	7.022306	26.36948
112	7.76651	2.7950226	0.5705	7.019577	26.45415
113	7.75931	2.8037940	0.5795	7.016364	26.55107
114	7.75365	2.8090510	0.6099	7.014611	26.61021
115	7.75016	2.8105554	0.6313	7.014350	26.62857
116	7.74793	2.8118942	0.6433	7.014004	26.64423
117	7.74608	2.8125637	0.6614	7.013927	26.65263
118	7.74492	2.8144895	0.6614	7.013166	26.67362
119	7.74328	2.8169612	0.6524	7.012209	26.70068
120	7.74121	2.8205546	0.6403	7.010775	26.73979
121	7.73904	2.8216163	0.6250	7.010552	26.75255
122	7.73661	2.8221205	0.6039	7.010626	26.75969
123	7.73497	2.8226545	0.5919	7.010585	26.76653
124	7.73476	2.8229630	0.5947	7.010466	26.76992
125	7.73460	2.8230994	0.6040	7.010422	26.77146
126	7.73370	2.8235207	0.6070	7.010339	26.77655
127	7.73343	2.8244464	0.6221	7.009935	26.78642
128	7.73492	2.8237758	0.6372	7.010062	26.77827
129	7.73550	2.8194041	0.6463	7.012055	26.73215
130	7.73322	2.8222630	0.6644	7.010996	26.76376
131	7.73010	2.8232953	0.6707	7.010909	26.77693
132	7.72947	2.8236869	0.6614	7.010805	26.78152
133	7.73248	2.8247787	0.6432	7.009901	26.79062
134	7.73518	2.8231825	0.6038	7.010308	26.77188
135	7.73264	2.8241081	0.5887	7.010197	26.78351
136	7.72873	2.8243870	0.5827	7.010568	26.78943
137	7.72613	2.8249212	0.5917	7.010649	26.79700
138	7.72476	2.8257639	0.6158	7.010427	26.80686
139	7.72476	2.8246126	0.6250	7.010972	26.79482
140	7.72428	2.8233547	0.6462	7.011629	26.78203
141	7.72270	2.8244168	0.6584	7.011330	26.79434
142	7.72090	2.8250874	0.6672	7.011244	26.80273
143	7.72201	2.8250221	0.6583	7.011132	26.80120
144	7.72725	2.8253959	0.6431	7.010282	26.80109
145	7.72957	2.8273071	0.6280	7.009079	26.81928
146	7.72740	2.8263218	0.6190	7.009823	26.81065
147	7.72333	2.8262684	0.6128	7.010372	26.81323
148	7.72048	2.8264940	0.6128	7.010632	26.81778
149	7.71984	2.8267136	0.6220	7.010610	26.82056
150	7.72005	2.8271351	0.6188	7.010383	26.82481
151	7.72011	2.8276159	0.6311	7.010149	26.82979
152	7.71995	2.8258174	0.6341	7.011021	26.81111
153	7.71857	2.8245830	0.6370	7.011782	26.79926
154	7.71656	2.8253426	0.6523	7.011681	26.80874
155	7.71476	2.8260964	0.6553	7.011555	26.81800
156	7.71408	2.8266603	0.6674	7.011377	26.82442
157	7.71540	2.8270817	0.6643	7.011008	26.82781
158	7.72063	2.8280612	0.6614	7.009871	26.83402
159	7.72465	2.8283164	0.6523	7.009234	26.83360
160	7.72386	2.8277821	0.6494	7.009588	26.82863
161	7.72169	2.8279246	0.6463	7.009800	26.83179
162	7.71937	2.8282868	0.6404	7.009927	26.83737
163	7.71841	2.8288508	0.6280	7.009782	26.84400
164	7.72042	2.8296049	0.6129	7.009167	26.85034
165	7.72349	2.8291833	0.6040	7.008972	26.84358
166	7.72397	2.8273903	0.6007	7.009759	26.82447
167	7.72185	2.8274200	0.5978	7.010017	26.82641
168	7.71937	2.8278118	0.6189	7.010151	26.83241
169	7.71873	2.8282868	0.6463	7.010009	26.83785
170	7.71974	2.8290171	0.6825	7.009535	26.84470
171	7.72402	2.8291002	0.7008	7.008945	26.84226
172	7.72978	2.8261259	0.7007	7.009611	26.80674
173	7.73370	2.8223816	0.6736	7.010878	26.76463
174	7.75545	2.8220907	0.6342	7.008219	26.74493
175	7.79432	2.8229862	0.5948	7.002802	26.72452
176	7.83312	2.8246116	0.5826	6.997057	26.71178
177	7.85821	2.8240239	0.5948	6.994117	26.68649
178	7.87329	2.8246943	0.6099	6.991871	26.68196
179	7.87769	2.8253945	0.6432	6.990978	26.68587
180	7.87042	2.8249792	0.6431	6.992105	26.68709
181	7.86830	2.8238577	0.6340	6.992903	26.67705
182	7.86639	2.8233771	0.6280	6.993374	26.67351
183	7.87238	2.8238576	0.6281	6.992379	26.67393
184	7.88316	2.8239940	0.6493	6.990935	26.66712
185	7.89155	2.8249790	0.6946	6.989400	26.67095
186	7.89601	2.8246941	0.7157	6.988962	26.66458
187	7.89692	2.8237447	0.6946	6.989291	26.65402
188	7.89909	2.8250620	0.6462	6.988394	26.66608
189	7.91636	2.8255366	0.6009	6.985961	26.65787
190	7.93725	2.8254533	0.5736	6.983328	26.64111
191	7.94911	2.8246105	0.5674	6.982205	26.62334
192	7.94986	2.8243316	0.5704	6.982241	26.61987
193	7.94565	2.8244444	0.5765	6.982725	26.62424
194	7.93826	2.8247234	0.5916	6.983540	26.63275
195	7.92646	2.8248362	0.6221	6.984998	26.64290
196	7.90829	2.8250857	0.6644	6.987207	26.65932
197	7.88799	2.8253410	0.7068	6.989686	26.67743
198	7.86930	2.8251454	0.7401	6.992171	26.68964
199	7.86325	2.8251098	0.7370	6.992963	26.69389
200	7.86432	2.8249496	0.7158	6.992902	26.69142
201	7.89166	2.8253410	0.6765	6.989216	26.67464
202	7.92141	2.8255366	0.6131	6.985316	26.65402
203	7.94645	2.8255897	0.5615	6.982088	26.63553
204	7.96464	2.8246400	0.5310	6.980205	26.61185
205	7.97406	2.8240228	0.5370	6.979290	26.59829
206	7.97327	2.8243611	0.5858	6.979235	26.60238
207	7.94257	2.8244148	0.6523	6.983135	26.62625
208	7.89442	2.8244983	0.6946	6.989258	26.66376
209	7.86177	2.8238815	0.7161	6.993730	26.68224
210	7.84192	2.8239410	0.7161	6.996246	26.69802
211	7.83742	2.8238283	0.6978	6.996877	26.70030
212	7.86267	2.8237153	0.6675	6.993692	26.67985
213	7.89192	2.8237151	0.6493	6.989944	26.65754
214	7.91509	2.8236852	0.6313	6.986992	26.63959
215	7.93055	2.8232104	0.6191	6.985235	26.62289
216	7.94257	2.8229314	0.6012	6.983828	26.61086
217	7.94672	2.8227059	0.5828	6.983402	26.60538
218	7.95369	2.8227652	0.5736	6.982483	26.60070
219	7.96065	2.8225397	0.5676	6.981697	26.59307
220	7.96566	2.8227354	0.5768	6.980966	26.59130
221	7.96731	2.8239932	0.6343	6.980169	26.60308
222	7.96204	2.8247766	0.7009	6.980478	26.61518
223	7.93943	2.8245572	0.7433	6.983471	26.63008
224	7.91785	2.8223799	0.7524	6.987252	26.62388
225	7.90542	2.8207785	0.7221	6.989593	26.61670
226	7.91466	2.8207487	0.6737	6.988422	26.60938
227	7.93768	2.8209976	0.6221	6.985358	26.59449
228	7.95230	2.8215847	0.5858	6.983212	26.58949
229	7.96087	2.8219761	0.5677	6.981933	26.58706
230	7.95954	2.8222015	0.5646	6.981998	26.59041
231	7.95608	2.8226524	0.5859	6.982230	26.59771
232	7.95156	2.8230678	0.6099	6.982614	26.60544
233	7.93794	2.8230976	0.6375	6.984342	26.61609
234	7.91897	2.8223977	0.6526	6.987099	26.62325
235	7.91360	2.8217571	0.6585	6.988086	26.62067
236	7.91503	2.8219528	0.6617	6.987811	26.62161
237	7.91790	2.8211401	0.6676	6.987824	26.61098
238	7.92705	2.8209443	0.6707	6.986745	26.60200
239	7.94199	2.8211103	0.6676	6.984755	26.59237
240	7.95853	2.8212228	0.6707	6.982586	26.58098
241	7.97055	2.8212761	0.6648	6.981024	26.57240
242	7.97981	2.8213056	0.6585	6.979826	26.56569
243	7.98668	2.8215844	0.6436	6.978818	26.56338
244	7.99254	2.8216140	0.6345	6.978055	26.55925
245	7.99786	2.8216673	0.6193	6.977350	26.55577
246	8.00185	2.8217266	0.6193	6.976812	26.55336
247	8.00564	2.8217562	0.6102	6.976315	26.55080
248	8.00867	2.8215308	0.6163	6.976032	26.54616
249	8.01080	2.8211096	0.6344	6.975956	26.54018
250	8.01229	2.8211393	0.6526	6.975752	26.53935
251	8.01288	2.8210562	0.6677	6.975716	26.53804
252	8.01261	2.8209969	0.6678	6.975778	26.53763
253	8.01203	2.8209139	0.6435	6.975891	26.53722
254	8.01501	2.8211392	0.6254	6.975405	26.53730
255	8.01981	2.8209731	0.6103	6.974870	26.53196
256	8.02322	2.8205520	0.6314	6.974630	26.52500
257	8.02252	2.8205816	0.6738	6.974706	26.52582
258	8.00942	2.8208605	0.7104	6.976251	26.53862
259	7.97731	2.8205524	0.7255	6.980498	26.55975
260	7.96050	2.8199654	0.7163	6.982923	26.56641
261	7.95736	2.8203272	0.6709	6.983154	26.57257
262	7.97321	2.8210269	0.6164	6.980799	26.56782
263	7.98987	2.8209734	0.5619	6.978693	26.55465
264	7.99988	2.8201014	0.5285	6.977819	26.53804
265	8.00106	2.8199650	0.5346	6.977733	26.53574
266	7.99701	2.8204217	0.5709	6.978038	26.54352
267	7.96762	2.8211931	0.6226	6.981436	26.57378
268	7.91822	2.8218697	0.6770	6.987442	26.61832
269	7.87897	2.8218938	0.7226	6.992459	26.64844
270	7.85699	2.8207196	0.7407	6.995828	26.65297
271	7.84707	2.8207493	0.7468	6.997087	26.66084
272	7.84776	2.8209451	0.7075	6.996906	26.66237
273	7.87504	2.8209982	0.6590	6.993382	26.64214
274	7.90457	2.8211402	0.6168	6.989531	26.62115
275	7.92630	2.8215019	0.5771	6.986578	26.60839
276	7.93879	2.8215848	0.5650	6.984940	26.59976
277	7.93970	2.8219763	0.5682	6.984641	26.60314
278	7.93949	2.8222314	0.5832	6.984549	26.60594
279	7.93162	2.8222018	0.6044	6.985570	26.61161
280	7.90547	2.8222020	0.6467	6.988918	26.63149
281	7.87536	2.8224812	0.6834	6.992646	26.65732
282	7.84861	2.8224577	0.7258	6.996086	26.67746
283	7.83254	2.8210579	0.7346	6.998806	26.67515
284	7.82930	2.8206902	0.7227	6.999394	26.67379
285	7.83381	2.8200199	0.6832	6.999130	26.66339
286	7.86214	2.8199663	0.6315	6.995520	26.64124
287	7.89214	2.8201854	0.5865	6.991570	26.62070
288	7.91121	2.8208317	0.5619	6.988824	26.61291
289	7.92327	2.8211697	0.5651	6.987121	26.60725
290	7.92593	2.8216146	0.5895	6.986573	26.60984
291	7.91461	2.8223147	0.6229	6.987695	26.62571
292	7.88332	2.8227065	0.6499	6.991519	26.65361
293	7.85466	2.8216152	0.6683	6.995705	26.66410
294	7.84320	2.8202986	0.6681	6.997794	26.65913
295	7.83333	2.8203283	0.6561	6.999046	26.66697
296	7.83922	2.8208028	0.6560	6.998067	26.66742
297	7.84829	2.8212535	0.6713	6.996692	26.66519
298	7.85137	2.8215856	0.6956	6.996142	26.66629
299	7.85121	2.8210814	0.6987	6.996399	26.66116
300	7.85307	2.8203578	0.6833	6.996501	26.65222
301	7.85694	2.8201858	0.6381	6.996084	26.64749
302	7.87578	2.8203872	0.6048	6.993572	26.63524
303	7.89787	2.8206065	0.5744	6.990638	26.62071
304	7.91216	2.8210571	0.5776	6.988596	26.61452
305	7.91487	2.8222316	0.6078	6.987699	26.62465
306	7.89426	2.8227657	0.6563	6.990090	26.64588
307	7.85407	2.8229026	0.6987	6.995176	26.67793
308	7.82713	2.8211350	0.7079	6.999464	26.68009
309	7.81202	2.8206073	0.6868	7.001651	26.68614
310	7.81366	2.8204412	0.6473	7.001518	26.68317
311	7.84129	2.8204706	0.6079	6.997957	26.66240
312	7.87063	2.8213066	0.5837	6.993801	26.64874
313	7.88486	2.8217277	0.5927	6.991780	26.64227
314	7.89054	2.8222022	0.6200	6.990830	26.64287
315	7.88306	2.8225938	0.6565	6.991606	26.65263
316	7.85800	2.8229856	0.6928	6.994633	26.67580
317	7.83312	2.8222858	0.7201	6.998154	26.68750
318	7.82442	2.8206072	0.7141	7.000059	26.67666
319	7.82013	2.8201624	0.6778	7.000819	26.67532
320	7.83641	2.8199369	0.6352	6.998835	26.66056
321	7.86490	2.8202747	0.5899	6.995020	26.64237
322	7.88645	2.8209743	0.5746	6.991928	26.63323
323	7.89554	2.8213894	0.5808	6.990570	26.63063
324	7.89569	2.8220657	0.6051	6.990233	26.63753
325	7.87610	2.8225405	0.6323	6.992522	26.65739
326	7.84458	2.8228196	0.6565	6.996432	26.68434
327	7.82135	2.8229622	0.6808	6.999345	26.70356
328	7.80963	2.8223987	0.6930	7.001114	26.70664
329	7.80682	2.8214615	0.6990	7.001916	26.69901
330	7.80205	2.8211946	0.6870	7.002654	26.69988
331	7.80311	2.8210819	0.6869	7.002571	26.69789
332	7.82145	2.8208860	0.6718	7.000308	26.68185
333	7.84643	2.8206900	0.6537	6.997195	26.66074
334	7.86840	2.8206898	0.6296	6.994377	26.64400
335	7.88868	2.8206659	0.5962	6.991788	26.62832
336	7.90648	2.8207191	0.5629	6.989482	26.61534
337	7.91854	2.8209444	0.5507	6.987832	26.60851
338	7.92582	2.8212765	0.5627	6.986744	26.60642
339	7.92662	2.8215315	0.6173	6.986524	26.60844
340	7.89639	2.8222615	0.6719	6.990054	26.63901
341	7.85360	2.8224576	0.7265	6.995447	26.67365
342	7.82580	2.8211113	0.7508	6.999646	26.68084
343	7.80953	2.8206370	0.7538	7.001958	26.68833
344	7.80216	2.8204710	0.7325	7.002982	26.69224
345	7.82209	2.8201861	0.6902	7.000556	26.67406
346	7.85216	2.8199901	0.6327	6.996788	26.64910
347	7.87939	2.8199661	0.5782	6.993307	26.62812
348	7.89936	2.8205234	0.5267	6.990485	26.61874
349	7.90807	2.8211936	0.5146	6.989055	26.61908
350	7.91099	2.8209860	0.5510	6.988779	26.61468
351	7.89856	2.8216445	0.6115	6.990063	26.63097
352	7.85423	2.8231577	0.6691	6.995035	26.68048
353	7.81366	2.8236327	0.7267	7.000016	26.71641
354	7.78717	2.8220074	0.7539	7.004184	26.71972
355	7.77265	2.8207797	0.7509	7.006628	26.71802
356	7.76508	2.8197715	0.7265	7.008077	26.71330
357	7.78372	2.8196290	0.6690	7.005747	26.69758
358	7.81790	2.8196287	0.6148	7.001355	26.67148
359	7.84792	2.8202452	0.5782	6.997212	26.65501
360	7.86378	2.8215024	0.5602	6.994586	26.65601
361	7.86676	2.8220363	0.5602	6.993954	26.65929
362	7.86973	2.8219769	0.5784	6.993602	26.65640
363	7.85731	2.8216983	0.6177	6.995325	26.66296
364	7.82787	2.8220663	0.6601	6.998929	26.68925
365	7.80073	2.8225708	0.6965	7.002176	26.71524
366	7.78113	2.8221202	0.7210	7.004906	26.72553
367	7.77202	2.8206670	0.7209	7.006762	26.71734
368	7.76514	2.8203883	0.7088	7.007779	26.71971
369	7.76720	2.8204713	0.6754	7.007473	26.71900
370	7.78515	2.8205245	0.6541	7.005141	26.70583
371	7.80693	2.8211945	0.6482	7.002027	26.69617
372	7.82140	2.8214198	0.6543	7.000064	26.68745
373	7.82485	2.8212240	0.6512	6.999713	26.68278
374	7.82739	2.8209156	0.6361	6.999532	26.67763
375	7.82925	2.8203877	0.6150	6.999541	26.67072
376	7.82893	2.8203580	0.5816	6.999596	26.67067
377	7.83445	2.8202987	0.5636	6.998915	26.66585
378	7.84097	2.8210281	0.5816	6.997736	26.66846
379	7.84171	2.8220365	0.6303	6.997167	26.67838
380	7.82601	2.8226240	0.6937	6.998906	26.69646
381	7.79750	2.8230455	0.7512	7.002368	26.72264
382	7.77604	2.8214202	0.7695	7.005891	26.72210
383	7.76381	2.8204120	0.7484	7.007938	26.72095
384	7.76413	2.8202460	0.6967	7.007975	26.71899
385	7.78828	2.8201627	0.6394	7.004909	26.69967
386	7.81658	2.8204115	0.5848	7.001156	26.68066
387	7.83609	2.8210815	0.5486	6.998336	26.67276
388	7.84187	2.8213662	0.5486	6.997460	26.67131
389	7.84362	2.8215619	0.5698	6.997144	26.67200
390	7.82692	2.8222621	0.6364	6.998959	26.69203
391	7.79962	2.8229624	0.6819	7.002134	26.72018
392	7.77869	2.8227372	0.7272	7.004928	26.73383
393	7.76762	2.8208865	0.7242	7.007224	26.72299
394	7.76069	2.8205841	0.7153	7.008258	26.72515
395	7.76201	2.8204713	0.6908	7.008141	26.72297
396	7.77901	2.8203881	0.6576	7.005994	26.70911
397	7.79744	2.8204947	0.6212	7.003575	26.69613
398	7.81382	2.8206369	0.5970	7.001404	26.68511
399	7.82660	2.8213070	0.5910	6.999449	26.68234
400	7.83185	2.8216985	0.6094	6.998591	26.68240
401	7.83339	2.8217815	0.6425	6.998355	26.68208
402	7.82861	2.8218409	0.6851	6.998941	26.68632
403	7.81138	2.8216453	0.7093	7.001245	26.69744
404	7.79654	2.8208625	0.7061	7.003519	26.70062
405	7.79151	2.8208032	0.6761	7.004193	26.70387
406	7.79734	2.8206371	0.6336	7.003522	26.69769
407	7.81260	2.8205539	0.6064	7.001600	26.68517
408	7.82262	2.8203581	0.6003	7.000406	26.67548
409	7.82448	2.8215028	0.6273	6.999629	26.68598
410	7.81255	2.8221199	0.6578	7.000870	26.70151
411	7.79326	2.8219777	0.6851	7.003415	26.71477
412	7.77964	2.8211711	0.6852	7.005544	26.71678
413	7.76927	2.8210169	0.6732	7.006950	26.72312
414	7.76381	2.8210585	0.6669	7.007632	26.72773
415	7.76990	2.8210584	0.6519	7.006849	26.72307
416	7.77821	2.8209991	0.6340	7.005808	26.71610
417	7.78600	2.8210820	0.6218	7.004768	26.71101
418	7.79066	2.8210582	0.6126	7.004180	26.70720
419	7.79114	2.8215328	0.6366	7.003896	26.71177
420	7.78611	2.8227667	0.6701	7.003961	26.72848
421	7.77869	2.8232414	0.7035	7.004690	26.73910
422	7.76842	2.8222330	0.7337	7.006486	26.73643
423	7.76180	2.8214500	0.7158	7.007706	26.73334
424	7.76106	2.8215034	0.6824	7.007776	26.73448
425	7.77769	2.8214736	0.6401	7.005652	26.72145
426	7.79787	2.8215861	0.5975	7.003006	26.70720
427	7.80995	2.8220665	0.5642	7.001227	26.70298
428	7.81477	2.8224817	0.5612	7.000413	26.70362
429	7.81197	2.8228199	0.5886	7.000614	26.70928
430	7.79776	2.8236328	0.6369	7.002055	26.72861
431	7.77562	2.8241908	0.6917	7.004636	26.75136
432	7.75979	2.8231823	0.7157	7.007147	26.75296
433	7.75190	2.8222331	0.7279	7.008609	26.74909
434	7.74539	2.8220908	0.7067	7.009513	26.75261
435	7.74650	2.8220552	0.7039	7.009387	26.75138
436	7.75010	2.8221204	0.6950	7.008893	26.74931
437	7.75635	2.8219780	0.6946	7.008157	26.74304
438	7.76143	2.8221737	0.6795	7.007411	26.74119
439	7.76821	2.8217287	0.6309	7.006750	26.73137
440	7.78733	2.8216455	0.5825	7.004332	26.71589
441	7.80682	2.8219775	0.5403	7.001670	26.70445
442	7.81785	2.8227367	0.5373	6.999898	26.70394
443	7.81743	2.8231817	0.5767	6.999743	26.70889
444	7.79856	2.8241372	0.6494	7.001716	26.73325
445	7.77271	2.8246953	0.7161	7.004773	26.75885
446	7.75412	2.8245590	0.7616	7.007225	26.77166
447	7.74396	2.8228206	0.7797	7.009353	26.76129
448	7.73666	2.8221502	0.7645	7.010608	26.75990
449	7.73904	2.8215867	0.7314	7.010568	26.75220
450	7.75804	2.8214500	0.6677	7.008189	26.73624
451	7.78245	2.8218116	0.5949	7.004879	26.72135
452	7.79946	2.8228496	0.5406	7.002205	26.71918
453	7.80783	2.8231581	0.5194	7.000985	26.71600
454	7.80333	2.8233539	0.5465	7.001471	26.72148
455	7.78441	2.8240246	0.6011	7.003584	26.74293
456	7.76244	2.8245588	0.6710	7.006156	26.76532
457	7.74534	2.8247252	0.7163	7.008275	26.78016
458	7.73492	2.8233309	0.7527	7.010275	26.77358
459	7.72915	2.8227080	0.7496	7.011311	26.77150
460	7.72836	2.8224291	0.7284	7.011544	26.76920
461	7.74402	2.8222332	0.6769	7.009622	26.75516
462	7.76392	2.8223457	0.6437	7.007010	26.74109
463	7.77790	2.8229329	0.6164	7.004936	26.73652
464	7.78346	2.8233778	0.5921	7.004011	26.73692
465	7.78462	2.8236033	0.5984	7.003756	26.73837
466	7.78431	2.8236626	0.6256	7.003769	26.73922
467	7.77795	2.8237161	0.6529	7.004560	26.74464
468	7.76445	2.8237993	0.6863	7.006256	26.75584
469	7.75508	2.8236333	0.6952	7.007539	26.76129
470	7.75095	2.8231586	0.7014	7.008294	26.75950
471	7.74687	2.8231824	0.6984	7.008806	26.76287
472	7.74412	2.8232714	0.6740	7.009118	26.76592
473	7.75090	2.8232714	0.6531	7.008246	26.76074
474	7.76365	2.8231822	0.6197	7.006648	26.75004
475	7.77514	2.8232118	0.5984	7.005158	26.74155
476	7.78240	2.8231821	0.6075	7.004240	26.73568
477	7.78446	2.8234372	0.6348	7.003855	26.73675
478	7.78235	2.8235737	0.6774	7.004063	26.73978
479	7.77387	2.8236865	0.7014	7.005099	26.74744
480	7.76254	2.8234374	0.7138	7.006673	26.75352
481	7.75592	2.8230637	0.7045	7.007699	26.75469
482	7.75148	2.8232120	0.6743	7.008200	26.75966
483	7.75656	2.8233544	0.6409	7.007479	26.75726
484	7.76736	2.8232949	0.5926	7.006119	26.74838
485	7.77821	2.8232118	0.5742	7.004763	26.73921
486	7.78378	2.8232948	0.5866	7.004010	26.73581
487	7.78420	2.8235736	0.6350	7.003825	26.73837
488	7.77345	2.8239713	0.7016	7.005019	26.75073
489	7.75682	2.8240783	0.7441	7.007105	26.76458
490	7.74545	2.8234672	0.7563	7.008856	26.76692
491	7.73761	2.8234376	0.7380	7.009877	26.77263
492	7.73740	2.8234080	0.6865	7.009917	26.77250
493	7.74973	2.8234375	0.6412	7.008317	26.76337
494	7.76196	2.8234670	0.5989	7.006731	26.75432
495	7.77032	2.8235738	0.5777	7.005606	26.74903
496	7.77318	2.8236627	0.5837	7.005197	26.74776
497	7.77329	2.8239713	0.6172	7.005038	26.75089
498	7.76942	2.8240781	0.6594	7.005485	26.75495
499	7.75926	2.8242206	0.6992	7.006724	26.76422
500	7.74915	2.8236630	0.7081	7.008287	26.76614
501	7.74359	2.8235740	0.6957	7.009043	26.76948
502	7.73968	2.8235503	0.6717	7.009557	26.77225
503	7.74449	2.8236037	0.6445	7.008912	26.76912
504	7.75211	2.8236867	0.6446	7.007894	26.76414
505	7.75561	2.8235976	0.6504	7.007487	26.76053
506	7.75434	2.8239418	0.6748	7.007488	26.76509
507	7.75074	2.8239122	0.6869	7.007965	26.76754
508	7.74867	2.8236333	0.6839	7.008362	26.76621
509	7.74693	2.8236630	0.6687	7.008572	26.76786
510	7.74608	2.8235740	0.6444	7.008722	26.76759
511	7.74926	2.8236867	0.6324	7.008261	26.76634
512	7.75148	2.8237163	0.6234	7.007961	26.76495
513	7.75227	2.8236867	0.6263	7.007873	26.76403
514	7.75238	2.8239418	0.6294	7.007739	26.76661
515	7.75127	2.8241673	0.6416	7.007775	26.76981
516	7.75047	2.8243631	0.6600	7.007785	26.77246
517	7.74820	2.8244462	0.6902	7.008039	26.77506
518	7.74105	2.8245591	0.7264	7.008904	26.78171
519	7.73317	2.8242209	0.7386	7.010078	26.78422
520	7.72984	2.8238827	0.7264	7.010666	26.78325
521	7.72862	2.8238827	0.6719	7.010822	26.78421
522	7.73761	2.8239716	0.6085	7.009622	26.77826
523	7.75005	2.8240249	0.5750	7.007998	26.76928
524	7.75799	2.8241079	0.5751	7.006938	26.76406
525	7.75757	2.8244995	0.6083	7.006808	26.76846
526	7.74788	2.8247785	0.6479	7.007922	26.77879
527	7.73661	2.8249804	0.6691	7.009275	26.78954
528	7.72920	2.8245829	0.6841	7.010416	26.79107
529	7.72545	2.8242803	0.6722	7.011042	26.79080
530	7.72159	2.8243693	0.6690	7.011496	26.79470
531	7.72153	2.8243634	0.6751	7.011506	26.79467
532	7.72344	2.8245295	0.6813	7.011182	26.79495
533	7.72360	2.8246423	0.6933	7.011109	26.79600
534	7.72407	2.8246720	0.7026	7.011034	26.79594
535	7.72450	2.8243634	0.6995	7.011125	26.79239
536	7.72487	2.8243634	0.6844	7.011077	26.79211
537	7.72672	2.8243871	0.6510	7.010827	26.79095
538	7.73518	2.8243633	0.6239	7.009750	26.78421
539	7.74566	2.8244462	0.5935	7.008364	26.77705
540	7.75296	2.8244462	0.5966	7.007425	26.77144
541	7.75540	2.8248081	0.6149	7.006942	26.77335
542	7.75492	2.8249802	0.6299	7.006922	26.77550
543	7.75026	2.8250040	0.6541	7.007509	26.77932
544	7.74460	2.8250041	0.6696	7.008237	26.78366
545	7.74121	2.8251169	0.6726	7.008619	26.78743
546	7.73777	2.8250338	0.6966	7.009101	26.78920
547	7.73248	2.8250339	0.7209	7.009781	26.79325
548	7.72688	2.8249509	0.7332	7.010542	26.79669
549	7.72407	2.8247254	0.7149	7.011009	26.79649
550	7.72307	2.8246720	0.6847	7.011163	26.79672
551	7.72899	2.8244761	0.6299	7.010493	26.79014
552	7.73873	2.8245828	0.5937	7.009190	26.78380
553	7.74502	2.8246955	0.5788	7.008327	26.78014
554	7.74793	2.8252295	0.5938	7.007701	26.78348
555	7.74470	2.8253720	0.6271	7.008049	26.78744
556	7.73613	2.8254374	0.6454	7.009120	26.79469
557	7.72857	2.8254553	0.6604	7.010084	26.80069
558	7.72497	2.8252594	0.6574	7.010639	26.80140
559	7.72296	2.8254850	0.6607	7.010791	26.80531
560	7.71989	2.8255681	0.6998	7.011147	26.80852
561	7.71598	2.8255385	0.7212	7.011664	26.81121
562	7.71249	2.8253961	0.7454	7.012181	26.81239
563	7.71090	2.8251172	0.7455	7.012517	26.81069
564	7.71048	2.8248679	0.7303	7.012689	26.80842
565	7.71397	2.8247254	0.6667	7.012307	26.80427
566	7.72407	2.8247787	0.5910	7.010981	26.79710
567	7.73597	2.8249804	0.5454	7.009355	26.79008
568	7.74333	2.8249803	0.5215	7.008409	26.78444
569	7.74603	2.8252889	0.5456	7.007917	26.78558
570	7.74153	2.8253720	0.6001	7.008457	26.78988
571	7.73068	2.8253959	0.6790	7.009841	26.79843
572	7.72106	2.8255088	0.7396	7.011026	26.80699
573	7.71455	2.8251171	0.7638	7.012048	26.80788
574	7.71075	2.8248383	0.7730	7.012670	26.80789
575	7.70985	2.8245831	0.7426	7.012906	26.80592
576	7.71778	2.8244465	0.7034	7.011950	26.79842
577	7.72957	2.8244167	0.6701	7.010446	26.78906
578	7.73947	2.8243870	0.6276	7.009188	26.78117
579	7.74619	2.8243869	0.5943	7.008324	26.77602
580	7.75042	2.8244165	0.5671	7.007765	26.77309
581	7.75121	2.8248675	0.5491	7.007450	26.77720
582	7.74957	2.8248438	0.5732	7.007672	26.77820
583	7.74709	2.8247251	0.6337	7.008049	26.77885
584	7.73804	2.8248914	0.6913	7.009134	26.78751
585	7.72836	2.8249508	0.7278	7.010351	26.79555
586	7.72217	2.8245830	0.7490	7.011321	26.79645
587	7.71841	2.8246720	0.7308	7.011762	26.80028
588	7.71868	2.8247551	0.7095	7.011688	26.80095
589	7.72656	2.8247787	0.6823	7.010663	26.79515
590	7.73460	2.8248083	0.6674	7.009615	26.78929
591	7.74052	2.8248676	0.6615	7.008825	26.78536
592	7.74248	2.8248676	0.6521	7.008574	26.78386
593	7.74275	2.8248913	0.6369	7.008528	26.78391
594	7.74333	2.8248082	0.6157	7.008492	26.78261
595	7.74396	2.8246124	0.6037	7.008503	26.78008
596	7.74386	2.8246955	0.5854	7.008477	26.78104
597	7.74322	2.8247786	0.6068	7.008520	26.78238
598	7.74238	2.8247549	0.6309	7.008640	26.78278
599	7.73894	2.8247786	0.6614	7.009071	26.78565
600	7.73312	2.8248914	0.6826	7.009767	26.79129
601	7.72804	2.8249508	0.7158	7.010392	26.79580
602	7.72354	2.8249806	0.7339	7.010956	26.79956
603	7.72111	2.8248916	0.7461	7.011311	26.80049
604	7.72137	2.8247788	0.7370	7.011331	26.79911
605	7.72169	2.8249509	0.7160	7.011208	26.80068
606	7.72555	2.8249509	0.6827	7.010711	26.79772
607	7.73269	2.8249804	0.6281	7.009778	26.79257
608	7.74021	2.8249329	0.5858	7.008834	26.78632
609	7.74624	2.8247785	0.5585	7.008131	26.78009
610	7.74841	2.8246420	0.5494	7.007917	26.77700
611	7.74793	2.8246717	0.5677	7.007964	26.77767
612	7.74555	2.8248379	0.6038	7.008192	26.78122
613	7.73756	2.8250635	0.6582	7.009113	26.78969
614	7.72809	2.8252594	0.7162	7.010239	26.79898
615	7.72106	2.8253723	0.7586	7.011091	26.80555
616	7.71667	2.8250637	0.7888	7.011802	26.80569
617	7.71424	2.8249510	0.7798	7.012168	26.80638
618	7.71265	2.8249213	0.7463	7.012385	26.80731
619	7.71773	2.8249213	0.6982	7.011732	26.80342
620	7.72603	2.8248915	0.6343	7.010677	26.79676
621	7.73418	2.8248677	0.5646	7.009640	26.79028
622	7.73989	2.8249507	0.5104	7.008865	26.78678
623	7.74253	2.8250634	0.5011	7.008471	26.78593
624	7.74179	2.8248676	0.5496	7.008660	26.78443
625	7.73455	2.8251763	0.6374	7.009447	26.79319
626	7.72434	2.8254553	0.7161	7.010629	26.80392
627	7.71619	2.8253130	0.7495	7.011744	26.80867
628	7.71138	2.8249807	0.7588	7.012521	26.80890
629	7.70879	2.8249807	0.7376	7.012854	26.81090
630	7.71313	2.8249806	0.7103	7.012295	26.80757
631	7.72053	2.8250637	0.6983	7.011304	26.80276
632	7.72455	2.8251764	0.6952	7.010734	26.80085
633	7.72513	2.8252298	0.6952	7.010634	26.80096
634	7.72518	2.8250636	0.6619	7.010705	26.79919
635	7.72502	2.8251704	0.6076	7.010674	26.80045
636	7.72656	2.8251170	0.5499	7.010501	26.79874
637	7.72920	2.8248914	0.5227	7.010267	26.79436
638	7.73047	2.8249804	0.5530	7.010062	26.79430
639	7.72788	2.8252001	0.6135	7.010293	26.79857
640	7.72053	2.8254553	0.6983	7.011119	26.80685
641	7.71371	2.8255682	0.7620	7.011943	26.81325
642	7.70932	2.8252596	0.7801	7.012654	26.81339
643	7.70673	2.8252596	0.7710	7.012987	26.81539
644	7.70821	2.8252893	0.7347	7.012782	26.81457
645	7.71466	2.8252892	0.6893	7.011952	26.80963
646	7.72132	2.8252892	0.6440	7.011094	26.80452
647	7.72561	2.8252298	0.6045	7.010571	26.80063
648	7.72777	2.8252001	0.5773	7.010306	26.79866
649	7.72804	2.8251763	0.5831	7.010283	26.79821
650	7.72772	2.8250873	0.6045	7.010366	26.79751
651	7.72645	2.8251467	0.6350	7.010502	26.79910
652	7.72206	2.8252001	0.6713	7.011042	26.80301
653	7.71746	2.8252298	0.6773	7.011619	26.80686
654	7.71535	2.8252299	0.6895	7.011891	26.80848
655	7.71413	2.8252596	0.6834	7.012034	26.80973
656	7.71265	2.8252596	0.6834	7.012224	26.81087
657	7.71286	2.8252596	0.6804	7.012197	26.81071
658	7.71381	2.8252299	0.6956	7.012089	26.80966
659	7.71397	2.8252299	0.7079	7.012069	26.80953
660	7.71381	2.8253427	0.7169	7.012036	26.81083
661	7.71397	2.8253783	0.6958	7.011998	26.81109
662	7.71461	2.8253960	0.6593	7.011907	26.81080
663	7.71799	2.8253960	0.6320	7.011472	26.80821
664	7.72259	2.8253129	0.5896	7.010919	26.80382
665	7.72598	2.8251170	0.5595	7.010576	26.79918
666	7.72719	2.8250339	0.5625	7.010459	26.79738
667	7.72645	2.8252594	0.6020	7.010448	26.80029
668	7.72349	2.8253426	0.6717	7.010791	26.80341
669	7.71757	2.8255088	0.7441	7.011475	26.80967
670	7.71249	2.8253961	0.7837	7.012182	26.81238
671	7.70969	2.8254258	0.7657	7.012528	26.81485
672	7.70948	2.8253427	0.7140	7.012593	26.81416
673	7.71540	2.8253129	0.6415	7.011844	26.80933
674	7.72106	2.8251764	0.5808	7.011180	26.80357
675	7.72365	2.8252298	0.5687	7.010822	26.80215
676	7.72180	2.8253425	0.5872	7.011007	26.80474
677	7.71593	2.8253960	0.6353	7.011737	26.80979
678	7.71080	2.8254851	0.6808	7.012355	26.81465
679	7.70715	2.8254258	0.7143	7.012853	26.81682
680	7.70525	2.8252893	0.7232	7.013163	26.81685
681	7.70414	2.8253427	0.7111	7.013280	26.81827
682	7.70525	2.8253427	0.6838	7.013137	26.81743
683	7.70990	2.8253723	0.6750	7.012524	26.81416
684	7.71365	2.8253961	0.6690	7.012030	26.81153
685	7.71519	2.8253960	0.6658	7.011833	26.81035
686	7.71572	2.8253426	0.6599	7.011790	26.80939
687	7.71603	2.8253960	0.6356	7.011723	26.80971
688	7.71603	2.8253782	0.6145	7.011732	26.80953
689	7.71762	2.8252298	0.6053	7.011598	26.80677
690	7.71852	2.8253129	0.6174	7.011443	26.80694
691	7.71862	2.8253960	0.6384	7.011390	26.80772
692	7.71688	2.8255385	0.6689	7.011548	26.81054
693	7.71392	2.8255919	0.7024	7.011904	26.81336
694	7.71096	2.8256216	0.7297	7.012271	26.81593
695	7.70916	2.8254851	0.7478	7.012567	26.81588
696	7.70842	2.8254258	0.7447	7.012691	26.81583
697	7.70800	2.8255089	0.7297	7.012705	26.81703
698	7.70985	2.8256513	0.6842	7.012399	26.81712
699	7.71434	2.8255919	0.6357	7.011848	26.81306
700	7.71926	2.8255087	0.5841	7.011254	26.80843
701	7.72264	2.8253959	0.5478	7.010872	26.80466
702	7.72344	2.8254850	0.5511	7.010728	26.80498
703	7.72233	2.8255384	0.5843	7.010846	26.80638
704	7.71857	2.8255918	0.6267	7.011304	26.80981
705	7.71328	2.8256513	0.6783	7.011957	26.81448
706	7.70884	2.8257641	0.7298	7.012476	26.81905
707	7.70588	2.8256513	0.7632	7.012910	26.82014
708	7.70456	2.8255386	0.7692	7.013134	26.81997
709	7.70361	2.8256217	0.7541	7.013217	26.82158
710	7.70493	2.8255683	0.7148	7.013071	26.82002
711	7.70948	2.8255385	0.6723	7.012500	26.81623
712	7.71492	2.8255088	0.6237	7.011813	26.81175
713	7.71942	2.8255384	0.5815	7.011220	26.80862
714	7.72212	2.8255384	0.5604	7.010873	26.80655
715	7.72291	2.8254850	0.5815	7.010796	26.80538
716	7.72132	2.8255562	0.6238	7.010967	26.80732
717	7.71603	2.8256512	0.6725	7.011603	26.81236
718	7.71112	2.8256216	0.7027	7.012250	26.81582
719	7.70821	2.8255920	0.7057	7.012638	26.81775
720	7.70641	2.8256810	0.6785	7.012827	26.82007
721	7.70779	2.8256513	0.6634	7.012664	26.81871
722	7.71080	2.8255682	0.6666	7.012316	26.81552
723	7.71143	2.8256810	0.6908	7.012181	26.81620
724	7.71022	2.8257641	0.7089	7.012299	26.81800
725	7.70890	2.8256216	0.7151	7.012536	26.81753
726	7.70805	2.8256216	0.6938	7.012644	26.81819
727	7.70853	2.8257047	0.6543	7.012543	26.81870
728	7.71164	2.8256809	0.6209	7.012153	26.81607
729	7.71476	2.8256215	0.5997	7.011779	26.81306
730	7.71603	2.8256215	0.6090	7.011616	26.81208
731	7.71577	2.8256809	0.6270	7.011622	26.81289
732	7.71376	2.8257047	0.6453	7.011870	26.81468
733	7.71154	2.8257047	0.6545	7.012156	26.81639
734	7.71016	2.8257344	0.6575	7.012318	26.81775
735	7.70868	2.8257344	0.6819	7.012509	26.81888
736	7.70689	2.8257344	0.7120	7.012741	26.82025
737	7.70530	2.8257938	0.7334	7.012917	26.82208
738	7.70419	2.8257344	0.7426	7.013088	26.82231
739	7.70403	2.8257641	0.7183	7.013094	26.82276
740	7.70408	2.8257938	0.6759	7.013073	26.82304
741	7.70678	2.8257641	0.6151	7.012739	26.82068
742	7.71022	2.8257344	0.5850	7.012310	26.81774
743	7.71180	2.8257047	0.5790	7.012120	26.81621
744	7.71207	2.8258174	0.6003	7.012033	26.81718
745	7.71101	2.8259599	0.6244	7.012102	26.81947
746	7.70911	2.8260430	0.6549	7.012308	26.82179
747	7.70757	2.8260727	0.6697	7.012492	26.82328
748	7.70683	2.8259303	0.6850	7.012655	26.82235
749	7.70641	2.8258175	0.6880	7.012762	26.82150
750	7.70599	2.8258472	0.6730	7.012802	26.82214
751	7.70678	2.8258175	0.6608	7.012714	26.82122
752	7.70816	2.8258175	0.6668	7.012538	26.82016
753	7.70995	2.8258471	0.6851	7.012293	26.81908
754	7.71117	2.8258768	0.7122	7.012123	26.81845
755	7.71101	2.8258768	0.7274	7.012143	26.81856
756	7.71085	2.8258175	0.7184	7.012192	26.81807
757	7.71096	2.8258471	0.6974	7.012164	26.81831
758	7.71154	2.8258471	0.6547	7.012088	26.81787
759	7.71424	2.8258471	0.6065	7.011741	26.81582
760	7.71736	2.8258471	0.5883	7.011339	26.81343
761	7.71847	2.8260429	0.7065	7.011106	26.81457
762	7.71561	2.8264644	0.8880	7.011277	26.82110
763	7.71064	2.8264349	1.1095	7.011934	26.82453
764	7.70678	2.8262391	1.3243	7.012527	26.82537
765	7.70430	2.8260136	1.5333	7.012957	26.82484
766	7.70287	2.8259009	1.7422	7.013197	26.82468
767	7.70213	2.8257645	1.9515	7.013361	26.82374
768	7.70176	2.8257052	2.1514	7.013440	26.82332
769	7.70134	2.8256518	2.3272	7.013523	26.82302
770	7.70023	2.8260436	2.5332	7.013484	26.82789
771	7.69838	2.8259903	2.7330	7.013751	26.82867
772	7.69674	2.8258835	2.9419	7.014016	26.82874
773	7.69658	2.8258776	3.1511	7.014043	26.82871
774	7.69721	2.8258480	3.3782	7.013979	26.82783
775	7.69690	2.8254860	3.6054	7.014196	26.82419
776	7.69573	2.8253971	3.8385	7.014392	26.82407
777	7.69425	2.8251479	4.0536	7.014704	26.82251
778	7.69325	2.8253141	4.2719	7.014758	26.82494
779	7.69277	2.8254863	4.5021	7.014742	26.82701
780	7.69314	2.8254270	4.7202	7.014727	26.82602
781	7.69372	2.8256229	4.9474	7.014563	26.82753
782	7.69383	2.8257951	5.1776	7.014472	26.82916
783	7.69288	2.8258783	5.4168	7.014559	26.83067
784	7.69182	2.8260742	5.6410	7.014606	26.83344
785	7.69092	2.8261277	5.8621	7.014701	26.83461
786	7.69018	2.8262405	6.0923	7.014746	26.83627
787	7.68960	2.8262999	6.3194	7.014797	26.83725
788	7.68934	2.8263831	6.5559	7.014796	26.83822
789	7.68913	2.8263535	6.7679	7.014841	26.83799
790	7.68923	2.8264070	6.9921	7.014806	26.83838
791	7.68923	2.8265495	7.2254	7.014743	26.83978
792	7.68923	2.8265495	7.4403	7.014747	26.83970
793	7.68907	2.8267158	7.6433	7.014692	26.84148
794	7.68913	2.8268286	7.8674	7.014636	26.84253
795	7.68923	2.8268584	8.1097	7.014612	26.84266
796	7.68929	2.8268585	8.3490	7.014610	26.84253
797	7.68934	2.8268288	8.5944	7.014621	26.84208
798	7.68934	2.8268052	8.8517	7.014637	26.84173
799	7.68960	2.8268052	9.1063	7.014608	26.84143
800	7.68976	2.8268350	9.3457	7.014577	26.84152
801	7.68987	2.8269122	9.5758	7.014531	26.84216
802	7.68971	2.8269716	9.7968	7.014528	26.84281
803	7.68960	2.8270548	10.0090	7.014506	26.84368
804	7.68955	2.8270252	10.2150	7.014530	26.84333
805	7.68966	2.8270846	10.4270	7.014492	26.84378
806	7.68960	2.8271974	10.6450	7.014449	26.84492
807	7.68897	2.8274765	10.8601	7.014403	26.84824
808	7.68791	2.8279278	11.0931	7.014329	26.85368
809	7.68707	2.8279516	11.3297	7.014431	26.85449
810	7.68469	2.8305940	11.5962	7.013489	26.88387
811	7.67993	2.8319958	11.8355	7.013440	26.90211
812	7.67507	2.8327562	12.0871	7.013708	26.91372
813	7.67011	2.8334573	12.3263	7.014018	26.92480
814	7.66609	2.8342476	12.5536	7.014164	26.93609
815	7.66335	2.8354302	12.7895	7.013960	26.95050
816	7.66192	2.8368388	13.0046	7.013478	26.96627
817	7.66282	2.8379623	13.2168	7.012834	26.97726
818	7.66493	2.8389194	13.4046	7.012111	26.98558
819	7.66673	2.8398529	13.6227	7.011442	26.99388
820	7.66932	2.8407271	13.8227	7.010699	27.00095
821	7.67222	2.8430942	14.0495	7.009207	27.02340
822	7.67476	2.8452122	14.2680	7.007881	27.04353
823	7.67655	2.8480689	14.5192	7.006301	27.07196
824	7.67771	2.8497655	14.7646	7.005352	27.08873
825	7.67761	2.8510100	15.0099	7.004780	27.10175
826	7.67513	2.8518319	15.2613	7.004713	27.11220
827	7.67138	2.8519987	15.5005	7.005119	27.11677
828	7.66615	2.8518321	15.7430	7.005872	27.11899
829	7.66097	2.8519990	15.9609	7.006460	27.12468
830	7.65828	2.8524815	16.1730	7.006580	27.13175
831	7.65822	2.8533332	16.3761	7.006186	27.14064
832	7.66123	2.8540123	16.5727	7.005482	27.14534
833	7.66752	2.8561929	16.7877	7.003647	27.16321
834	7.67713	2.8575277	17.0029	7.001788	27.16962
835	7.68696	2.8590177	17.2332	6.999829	27.17748
836	7.69859	2.8613606	17.5209	6.997239	27.19284
837	7.71059	2.8634359	17.7633	6.994729	27.20512
838	7.72407	2.8678207	17.9844	6.990939	27.24042
839	7.73793	2.8758692	18.2418	6.985376	27.31375
840	7.75296	2.8817376	18.4660	6.980699	27.36333
841	7.75794	2.8881311	18.6871	6.977055	27.42627
842	7.75312	2.8941407	18.9020	6.974836	27.49291
843	7.74529	2.9011439	19.1201	6.972528	27.57238
844	7.73455	2.9053225	19.3232	6.971919	27.62460
845	7.72402	2.9083994	19.5352	6.971801	27.66513
846	7.71662	2.9107995	19.7594	6.971608	27.69610
847	7.70842	2.9132963	19.9835	6.971468	27.72872
848	7.69594	2.9155298	20.1894	6.971993	27.76202
849	7.68252	2.9182564	20.4286	6.972403	27.80126
850	7.66916	2.9215608	20.6560	6.972531	27.84657
851	7.65463	2.9235803	20.8893	6.973413	27.87933
852	7.64196	2.9245963	21.0981	6.974535	27.90008
853	7.63173	2.9261415	21.3223	6.975099	27.92445
854	7.62460	2.9269654	21.5494	6.975612	27.93875
855	7.62007	2.9272782	21.7612	6.976041	27.94560
856	7.61738	2.9278917	21.9827	6.976093	27.95413
857	7.61669	2.9284150	22.1853	6.975935	27.96010
858	7.61832	2.9301353	22.3974	6.974916	27.97682
859	7.62772	2.9357317	22.6247	6.971079	28.02813
860	7.64782	2.9401333	22.8427	6.966463	28.05820
861	7.67243	2.9450315	23.0668	6.961052	28.08984
862	7.70149	2.9502885	23.2788	6.954921	28.12163
863	7.73053	2.9561707	23.5000	6.948509	28.15996
864	7.75518	2.9585609	23.7089	6.944300	28.16509
865	7.77144	2.9610667	23.9360	6.941093	28.17820
866	7.78055	2.9628242	24.1480	6.939132	28.18921
867	7.78521	2.9651442	24.3603	6.937463	28.20972
868	7.78801	2.9672472	24.5691	6.936127	28.22944
869	7.79024	2.9694052	24.7932	6.934840	28.25021
870	7.79178	2.9702335	25.0143	6.934263	28.25758
871	7.79278	2.9713038	25.2263	6.933638	28.26791
872	7.79374	2.9721868	25.4416	6.933109	28.27632
873	7.79585	2.9734933	25.6655	6.932235	28.28823
874	7.79729	2.9735840	25.8715	6.932018	28.28794
875	7.79819	2.9739289	26.0895	6.931748	28.29074
876	7.79824	2.9739108	26.2956	6.931753	28.29042
877	7.79829	2.9746852	26.5197	6.931387	28.29842
878	7.80025	2.9750240	26.7316	6.930988	28.30030
879	7.80036	2.9753386	26.9438	6.930831	28.30343
880	7.79564	2.9750121	27.1556	6.931575	28.30374
881	7.78897	2.9750545	27.4282	6.932392	28.30948
882	7.78033	2.9745344	27.6585	6.933716	28.31092
883	7.77133	2.9741777	27.8735	6.935010	28.31439
884	7.76434	2.9747162	28.1036	6.935632	28.32562
885	7.75884	2.9747707	28.3068	6.936297	28.33058
886	7.75481	2.9752488	28.5247	6.936577	28.33878
887	7.75201	2.9753638	28.7306	6.936877	28.34219
888	7.74936	2.9753397	28.9365	6.937222	28.34400
889	7.74576	2.9752793	29.1578	6.937703	28.34619
890	7.74132	2.9749527	29.3666	6.938415	28.34628
891	7.73407	2.9740031	29.5906	6.939771	28.34209
892	7.72143	2.9727210	29.8181	6.941957	28.33878
893	7.70551	2.9717173	30.0360	6.944423	28.34106
894	7.69024	2.9708588	30.2660	6.946741	28.34435
895	7.67555	2.9705325	30.4905	6.948736	28.35276
896	7.66092	2.9726674	30.7173	6.949559	28.38708
897	7.64735	2.9765272	30.9386	6.949432	28.43875
898	7.63616	2.9796139	31.1295	6.949372	28.48037
899	7.62666	2.9823507	31.3322	6.949265	28.51694
900	7.61859	2.9837800	31.5353	6.949599	28.53856
901	7.61194	2.9859305	31.7383	6.949413	28.56664
902	7.60635	2.9903664	31.9594	6.948010	28.61800
903	7.60372	2.9951505	32.1771	6.946073	28.67063
904	7.61896	3.0046238	32.3832	6.939687	28.75810
905	7.66984	3.0274211	32.6196	6.922595	28.95673
906	7.71979	3.0414879	32.8374	6.909803	29.06363
907	7.76831	3.0536912	33.0585	6.898104	29.15182
908	7.80825	3.0607994	33.2643	6.889881	29.19330
909	7.83683	3.0642304	33.4736	6.884784	29.20547
910	7.85322	3.0675038	33.6735	6.881255	29.22615
911	7.83715	3.0663474	33.8823	6.883763	29.22733
912	7.78484	3.0640353	34.0822	6.891244	29.24667
913	7.73391	3.0637912	34.2853	6.897596	29.28672
914	7.69531	3.0642504	34.4912	6.902114	29.32393
915	7.66699	3.0654499	34.7032	6.905025	29.36038
916	7.64661	3.0662334	34.9303	6.907159	29.38576
917	7.63204	3.0668333	35.1573	6.908667	29.40432
918	7.62138	3.0671639	35.3966	6.909823	29.41672
919	7.61358	3.0677822	35.6057	6.910492	29.42979
920	7.60867	3.0692880	35.8358	6.910386	29.44980
921	7.60714	3.0715655	36.0356	6.909499	29.47517
922	7.61310	3.0761407	36.2324	6.906605	29.51855
923	7.62655	3.0810739	36.4264	6.902628	29.55937
924	7.64133	3.0845443	36.6110	6.899183	29.58354
925	7.66018	3.0917657	36.8141	6.893475	29.64398
926	7.68707	3.1031783	37.0562	6.884822	29.74191
927	7.72407	3.1082507	37.2683	6.877941	29.76396
928	7.76037	3.1144279	37.4802	6.870642	29.79825
929	7.79416	3.1241218	37.6894	6.862014	29.87181
930	7.82978	3.1312485	37.9133	6.854387	29.91655
931	7.85848	3.1383505	38.1315	6.847619	29.96688
932	7.87552	3.1441800	38.3557	6.842858	30.01372
933	7.88497	3.1470839	38.5616	6.840374	30.03618
934	7.88991	3.1484621	38.7702	6.839144	30.04639
935	7.89171	3.1497169	38.9793	6.838347	30.05800
936	7.89235	3.1513368	39.1762	6.837521	30.07447
937	7.89214	3.1515161	39.3671	6.837466	30.07646
938	7.89166	3.1524499	39.5516	6.837092	30.08665
939	7.89129	3.1534641	39.7456	6.836668	30.09759
940	7.89081	3.1541012	39.9424	6.836433	30.10465
941	7.89017	3.1548188	40.1486	6.836179	30.11268
942	7.88916	3.1553879	40.3513	6.836039	30.11947
943	7.88863	3.1559324	40.5573	6.835853	30.12559
944	7.88794	3.1564398	40.7664	6.835703	30.13145
945	7.88720	3.1567987	40.9750	6.835629	30.13579
946	7.88667	3.1573123	41.1903	6.835458	30.14158
947	7.88651	3.1578816	41.4114	6.835216	30.14764
948	7.88667	3.1583643	41.6415	6.834976	30.15250
949	7.88725	3.1590142	41.9079	6.834609	30.15874
950	7.88815	3.1596270	42.1745	6.834221	30.16432
951	7.88852	3.1604069	42.4135	6.833818	30.17213
952	7.88736	3.1626975	42.6681	6.832896	30.19723
953	7.87987	3.1653170	42.9074	6.832576	30.23127
954	7.86108	3.1682348	43.1586	6.833467	30.27828
955	7.83185	3.1709617	43.3950	6.835693	30.33238
956	7.79628	3.1736523	43.6462	6.838693	30.39170
957	7.76233	3.1748617	43.8945	6.842191	30.43400
958	7.73502	3.1757364	44.1487	6.845053	30.46701
959	7.71466	3.1761274	44.4033	6.847312	30.48886
960	7.70112	3.1766547	44.6576	6.848689	30.50619
961	7.69177	3.1768596	44.9272	6.849719	30.51644
962	7.68448	3.1769776	45.1937	6.850542	30.52396
963	7.67877	3.1771576	45.4754	6.851146	30.53075
964	7.67439	3.1774616	45.7510	6.851534	30.53771
965	7.66958	3.1778277	46.0358	6.851943	30.54569
966	7.66398	3.1781876	46.2930	6.852449	30.55432
967	7.65844	3.1785723	46.5384	6.852937	30.56317
968	7.65236	3.1791618	46.7957	6.853391	30.57466
969	7.64571	3.1795528	47.0499	6.854009	30.58455
970	7.63975	3.1800368	47.2893	6.854500	30.59484
971	7.63526	3.1804030	47.5407	6.854870	30.60257
972	7.63151	3.1806141	47.7890	6.855224	30.60800
973	7.62761	3.1808562	48.0344	6.855583	30.61390
974	7.62397	3.1813217	48.2915	6.855804	30.62195
975	7.61954	3.1818555	48.5460	6.856088	30.63142
976	7.61458	3.1825259	48.8245	6.856372	30.64281
977	7.60825	3.1849840	49.0971	6.855974	30.67446
978	7.59913	3.1892005	49.3725	6.855080	30.72735
979	7.58226	3.1919403	49.6359	6.855809	30.77137
980	7.56029	3.1938856	49.8996	6.857523	30.81148
981	7.53906	3.1939294	50.1693	6.860049	30.83064
982	7.51543	3.1935817	50.4263	6.863049	30.84778
983	7.49350	3.1936131	50.6810	6.865668	30.86749
984	7.47588	3.1948625	50.9263	6.867191	30.89642
985	7.46327	3.1970571	51.1744	6.867664	30.93104
986	7.45638	3.1985245	51.4318	6.867795	30.95278
987	7.45328	3.2000171	51.6861	6.867461	30.97142
988	7.45181	3.2010559	51.9406	6.867148	30.98375
989	7.45155	3.2018148	52.1950	6.866823	30.99201
990	7.45244	3.2039239	52.4645	6.865718	31.01369
991	7.45470	3.2054921	52.7431	6.864706	31.02835
992	7.45218	3.2054238	53.0339	6.865046	31.02974
993	7.44729	3.2056044	53.3184	6.865551	31.03592
994	7.44236	3.2057601	53.5999	6.866073	31.04188
995	7.43816	3.2061274	53.8542	6.866406	31.04946
996	7.43527	3.2065819	54.1181	6.866541	31.05680
997	7.43416	3.2079016	54.3813	6.866049	31.07182
998	7.43532	3.2096760	54.6325	6.865071	31.08970
999	7.43611	3.2105042	54.8808	6.864587	31.09777
1000	7.43479	3.2118806	55.1595	6.864094	31.11358
1001	7.43086	3.2129831	55.4291	6.864045	31.12882
1002	7.42277	3.2141170	55.6773	6.864476	31.14813
1003	7.41563	3.2150704	55.9407	6.864880	31.16466
1004	7.41044	3.2161733	56.1951	6.864980	31.18105
1005	7.40608	3.2166159	56.4645	6.865295	31.18960
1006	7.40167	3.2169712	56.7371	6.865658	31.19726
1007	7.39747	3.2172518	57.0037	6.866031	31.20392
1008	7.39375	3.2173703	57.2733	6.866425	31.20843
1009	7.39065	3.2175262	57.5426	6.866726	31.21277
1010	7.38819	3.2176510	57.8272	6.866967	31.21620
1011	7.38583	3.2177072	58.0846	6.867227	31.21881
1012	7.38389	3.2178008	58.3632	6.867420	31.22144
1013	7.38179	3.2177386	58.6206	6.867706	31.22254
1014	7.37880	3.2172526	58.8810	6.868301	31.21989
1015	7.37366	3.2167292	59.1504	6.869171	31.21877
1016	7.36858	3.2167605	59.4139	6.869770	31.22357
1017	7.36485	3.2168791	59.6802	6.870164	31.22808
1018	7.36187	3.2171908	59.9409	6.870377	31.23400
1019	7.35972	3.2174339	60.2163	6.870524	31.23843
1020	7.35453	3.2175275	60.4827	6.871105	31.24399
1021	7.34399	3.2175901	60.7554	6.872341	31.25404
1022	7.33168	3.2177087	61.0340	6.873763	31.26630
1023	7.31958	3.2178024	61.3124	6.875172	31.27811
1024	7.30937	3.2179148	61.6000	6.876347	31.28841
1025	7.30194	3.2181144	61.8905	6.877147	31.29714
1026	7.29671	3.2182329	62.1631	6.877723	31.30303
1027	7.29268	3.2182954	62.4419	6.878181	31.30722
1028	7.29006	3.2183578	62.6931	6.878470	31.31014
1029	7.28818	3.2184202	62.9446	6.878671	31.31241
1030	7.28703	3.2184203	63.2078	6.878814	31.31333
1031	7.28619	3.2184516	63.4682	6.878904	31.31430
1032	7.28499	3.2185452	63.7225	6.879009	31.31628
1033	7.28431	3.2184829	63.9861	6.879125	31.31611
1034	7.28363	3.2184830	64.2554	6.879212	31.31660
1035	7.28347	3.2184831	64.5464	6.879237	31.31661
1036	7.28315	3.2184521	64.8672	6.879296	31.31641
1037	7.28295	3.2185706	65.1489	6.879270	31.31775
1038	7.28300	3.2186330	65.4121	6.879239	31.31826
1039	7.28305	3.2186642	65.6846	6.879223	31.31842
1040	7.28305	3.2187890	65.9692	6.879169	31.31964
1041	7.28237	3.2190633	66.2570	6.879125	31.32308
1042	7.27824	3.2191570	66.5358	6.879581	31.32770
1043	7.27233	3.2197119	66.7959	6.880028	31.33891
1044	7.26741	3.2211272	67.0715	6.879942	31.35850
1045	7.26589	3.2229107	67.3380	6.879272	31.37898
1046	7.26689	3.2246010	67.6072	6.878346	31.39619
1047	7.26689	3.2249067	67.8741	6.878205	31.39936
1048	7.26464	3.2249692	68.1614	6.878450	31.40194
1049	7.26187	3.2250317	68.4735	6.878758	31.40499
1050	7.25868	3.2249382	68.7460	6.879190	31.40675
1051	7.25538	3.2248448	69.0424	6.879635	31.40860
1052	7.25272	3.2248449	69.3211	6.879960	31.41089
1053	7.25031	3.2246329	69.6057	6.880356	31.41066
1054	7.24791	3.2245707	69.8934	6.880680	31.41204
1055	7.24587	3.2247267	70.1780	6.880855	31.41544
1056	7.24603	3.2272783	70.4535	6.879614	31.44271
1057	7.25052	3.2304861	70.7410	6.877539	31.47311
1058	7.25627	3.2320280	71.0166	6.876116	31.48439
1059	7.26223	3.2333891	71.3013	6.874755	31.49352
1060	7.26830	3.2352375	71.5858	6.873148	31.50781
1061	7.27447	3.2366616	71.8705	6.871733	31.51742
1062	7.27991	3.2378985	72.1581	6.870495	31.52567
1063	7.28472	3.2387045	72.4306	6.869540	31.52985
1064	7.28854	3.2391981	72.7123	6.868853	31.53157
1065	7.29095	3.2395981	72.9971	6.868380	31.53356
1066	7.29278	3.2398793	73.2815	6.868032	31.53479
1067	7.29420	3.2401544	73.5662	6.867738	31.53634
1068	7.29509	3.2404044	73.8508	6.867518	31.53809
1069	7.29561	3.2406232	74.1322	6.867356	31.53985
1070	7.29613	3.2408983	74.4109	6.867167	31.54221
1071	7.29666	3.2413046	74.7227	6.866916	31.54597
1072	7.29734	3.2418609	75.0406	6.866575	31.55120
1073	7.29770	3.2424485	75.3159	6.866255	31.55708
1074	7.29775	3.2432863	75.5975	6.865853	31.56593
1075	7.29713	3.2446805	75.8882	6.865265	31.58141
1076	7.29346	3.2450808	76.1851	6.865516	31.58893
1077	7.28755	3.2450497	76.4544	6.866240	31.59387
1078	7.28096	3.2448373	76.7269	6.867133	31.59747
1079	7.27369	3.2443685	77.0055	6.868231	31.59892
1080	7.26364	3.2425433	77.2717	6.870310	31.58827
1081	7.24075	3.2392001	77.5563	6.874655	31.57295
1082	7.21185	3.2389506	77.8412	6.878232	31.59651
1083	7.18825	3.2379013	78.1346	6.881565	31.60661
1084	7.17150	3.2398510	78.4282	6.882633	31.64289
1085	7.16279	3.2427011	78.7250	6.882304	31.68159
1086	7.15283	3.2437515	79.0186	6.882994	31.70196
1087	7.13708	3.2441268	79.3092	6.884700	31.72035
1088	7.12196	3.2442459	79.6001	6.886456	31.73540
1089	7.10993	3.2441273	79.8878	6.887959	31.74505
1090	7.09894	3.2439399	80.1694	6.889370	31.75300
1091	7.08795	3.2437213	80.4356	6.890797	31.76062
1092	7.07650	3.2438466	80.7052	6.892113	31.77240
1093	7.06473	3.2446533	80.9778	6.893135	31.79187
1094	7.05365	3.2451787	81.2561	6.894213	31.80766
1095	7.04413	3.2460168	81.5380	6.894951	31.82542
1096	7.03560	3.2464797	81.8253	6.895753	31.83819
1097	7.02780	3.2461422	82.1280	6.896858	31.84159
1098	7.01875	3.2457672	82.4309	6.898130	31.84573
1099	7.00935	3.2457674	82.7335	6.899264	31.85428
1100	7.00114	3.2461428	83.0333	6.900071	31.86582
1101	6.99386	3.2468246	83.3147	6.900617	31.87983
1102	6.98675	3.2473188	83.5873	6.901235	31.89167
1103	6.97657	3.2467937	83.8570	6.902717	31.89525
1104	6.96374	3.2461748	84.1323	6.904562	31.90027
1105	6.95066	3.2458311	84.3958	6.906305	31.90852
1106	6.93909	3.2453998	84.6682	6.907910	31.91442
1107	6.92799	3.2444059	85.0012	6.909736	31.91373
1108	6.91539	3.2441560	85.3162	6.911378	31.92255
1109	6.90160	3.2433561	85.5976	6.913433	31.92649
1110	6.87657	3.2398876	85.8669	6.918149	31.91176
1111	6.83391	3.2359274	86.1456	6.925238	31.90799
1112	6.78575	3.2340732	86.4634	6.931967	31.93232
1113	6.74329	3.2324378	86.7570	6.937911	31.95381
1114	6.70499	3.2305281	87.0476	6.943494	31.96844
1115	6.67286	3.2294799	87.3384	6.947910	31.98678
1116	6.64730	3.2286815	87.6170	6.951410	32.00175
1117	6.62820	3.2284321	87.8801	6.953857	32.01675
1118	6.61445	3.2279706	88.1347	6.955760	32.02441
1119	6.60374	3.2272283	88.4040	6.957435	32.02614
1120	6.59402	3.2267979	88.6675	6.958835	32.03038
1121	6.58502	3.2264300	88.9431	6.960118	32.03463
1122	6.57859	3.2262742	89.2396	6.960983	32.03880
1123	6.57283	3.2262744	89.5184	6.961689	32.04406
1124	6.56871	3.2263369	89.8116	6.962164	32.04846
1125	6.56635	3.2266177	90.0902	6.962317	32.05364
1126	6.56506	3.2267676	90.3809	6.962405	32.05635
1127	6.56372	3.2266803	90.6717	6.962617	32.05651
1128	6.56151	3.2265245	90.9563	6.962969	32.05673
1129	6.55971	3.2266494	91.2437	6.963132	32.05965
1130	6.55812	3.2267992	91.5253	6.963257	32.06266
1131	6.55694	3.2268305	91.7917	6.963391	32.06399
1132	6.55689	3.2271113	92.0641	6.963263	32.06700
1133	6.55699	3.2273860	92.3337	6.963119	32.06980
1134	6.55776	3.2275420	92.6180	6.962953	32.07066
1135	6.55792	3.2276045	92.8847	6.962909	32.07107
1136	6.55617	3.2276982	93.1569	6.963081	32.07362
1137	6.55380	3.2277233	93.4447	6.963362	32.07597
1138	6.55216	3.2281914	93.7292	6.963334	32.08253
1139	6.55056	3.2284037	94.0045	6.963427	32.08624
1140	6.54733	3.2280356	94.2952	6.964011	32.08508
1141	6.54065	3.2275116	94.5857	6.965091	32.08544
1142	6.52955	3.2260644	94.9036	6.967171	32.07976
1143	6.50782	3.2229273	95.2157	6.971391	32.06543
1144	6.47031	3.2215621	95.5032	6.976652	32.08545
1145	6.43360	3.2205900	95.7726	6.981623	32.10910
1146	6.40542	3.2198485	96.0481	6.985442	32.12730
1147	6.38478	3.2194498	96.3144	6.988170	32.14221
1148	6.37014	3.2191135	96.5989	6.990134	32.15215
1149	6.35745	3.2176739	96.8956	6.992419	32.14804
1150	6.34073	3.2164776	97.1864	6.995076	32.15043
1151	6.32467	3.2157364	97.4827	6.997422	32.15723
1152	6.31113	3.2152195	97.7766	6.999349	32.16414
1153	6.29927	3.2151574	98.0613	7.000839	32.17451
1154	6.29084	3.2154005	98.3518	7.001755	32.18504
1155	6.28563	3.2156748	98.6484	7.002261	32.19286
1156	6.28191	3.2157996	98.9269	7.002661	32.19763
1157	6.27731	3.2157686	99.1993	7.003246	32.20151
1158	6.27180	3.2156503	99.4718	7.003988	32.20528
1159	6.26628	3.2154635	99.7352	7.004764	32.20830
1160	6.26036	3.2152518	100.0136	7.005604	32.21142
1161	6.25480	3.2150651	100.2893	7.006387	32.21448
1162	6.24929	3.2147599	100.5828	7.007224	32.21616
1163	6.24373	3.2145109	100.8793	7.008040	32.21852
1164	6.23857	3.2141746	101.1760	7.008849	32.21952
1165	6.23342	3.2138695	101.4790	7.009643	32.22087
1166	6.22847	3.2135644	101.7725	7.010412	32.22202
1167	6.22347	3.2133154	102.0662	7.011159	32.22385
1168	6.21832	3.2130103	102.3506	7.011953	32.22520
1169	6.21323	3.2129170	102.6261	7.012632	32.22886
1170	6.20940	3.2127676	102.9077	7.013184	32.23069
1171	6.20588	3.2127055	103.1590	7.013654	32.23321
1172	6.20165	3.2124627	103.4099	7.014302	32.23440
1173	6.19717	3.2121514	103.6767	7.015018	32.23507
1174	6.19375	3.2118463	103.9552	7.015599	32.23478
1175	6.19065	3.2115102	104.2456	7.016159	32.23385
1176	6.18698	3.2113857	104.5363	7.016680	32.23580
1177	6.18316	3.2107818	104.8452	7.017464	32.23256
1178	6.17796	3.2099787	105.1720	7.018520	32.22840
1179	6.17032	3.2094309	105.4805	7.019746	32.22940
1180	6.15988	3.2088459	105.7806	7.021336	32.23265
1181	6.14634	3.2081115	106.0742	7.023384	32.23718
1182	6.13295	3.2077445	106.3435	7.025226	32.24566
1183	6.12211	3.2076264	106.6161	7.026628	32.25451
1184	6.11382	3.2074709	106.8763	7.027735	32.26053
1185	6.10772	3.2072283	107.1426	7.028617	32.26349
1186	6.10314	3.2070417	107.4241	7.029283	32.26563
1187	6.09999	3.2069796	107.7147	7.029710	32.26779
1188	6.09760	3.2071042	108.0083	7.029948	32.27131
1189	6.09582	3.2071665	108.3020	7.030142	32.27355
1190	6.09480	3.2071978	108.5924	7.030257	32.27473
1191	6.09404	3.2072912	108.8741	7.030310	32.27636
1192	6.09211	3.2071980	109.1555	7.030602	32.27702
1193	6.08952	3.2071981	109.4371	7.030928	32.27935
1194	6.08692	3.2072293	109.7004	7.031238	32.28203
1195	6.08464	3.2071983	109.9699	7.031541	32.28373
1196	6.08311	3.2072295	110.2361	7.031719	32.28540
1197	6.08174	3.2073230	110.5117	7.031847	32.28762
1198	6.08032	3.2074102	110.7780	7.031984	32.28982
1199	6.07859	3.2073481	111.0507	7.032235	32.29063
1200	6.07722	3.2073233	111.3444	7.032423	32.29152
1201	6.07615	3.2071678	111.6499	7.032641	32.29065
1202	6.07452	3.2071368	111.9465	7.032864	32.29171
1203	6.07214	3.2070746	112.2310	7.033197	32.29315
1204	6.07036	3.2070436	112.5219	7.033439	32.29436
1205	6.06934	3.2070437	112.8062	7.033571	32.29519
1206	6.06787	3.2071061	113.0726	7.033727	32.29716
1207	6.06650	3.2071684	113.3420	7.033870	32.29903
1208	6.06462	3.2071996	113.6083	7.034092	32.30104
1209	6.06289	3.2072931	113.8929	7.034263	32.30359
1210	6.06147	3.2073243	114.1714	7.034429	32.30516
1211	6.05979	3.2072933	114.4470	7.034658	32.30627
1212	6.05862	3.2073806	114.7435	7.034764	32.30821
1213	6.05700	3.2075363	115.0674	7.034892	32.31134
1214	6.05532	3.2077792	115.3734	7.034981	32.31550
1215	6.05380	3.2080283	115.6516	7.035047	32.31960
1216	6.05309	3.2083334	115.9330	7.034985	32.32355
1217	6.05298	3.2085763	116.2178	7.034879	32.32622
1218	6.05298	3.2087881	116.4871	7.034776	32.32845
1219	6.05309	3.2090683	116.7656	7.034626	32.33135
1220	6.05375	3.2093735	117.0441	7.034394	32.33399
1221	6.05542	3.2098031	117.3345	7.033973	32.33705
1222	6.05679	3.2098032	117.6131	7.033810	32.33560
1223	6.05781	3.2098344	117.8975	7.033675	32.33485
1224	6.05837	3.2098034	118.1760	7.033628	32.33383
1225	6.05918	3.2098346	118.4636	7.033519	32.33327
1226	6.05974	3.2100152	118.7512	7.033363	32.33461
1227	6.06025	3.2101399	119.0386	7.033243	32.33538
1228	6.06060	3.2102022	119.3201	7.033174	32.33560
1229	6.06111	3.2104327	119.6078	7.032999	32.33755
1230	6.06309	3.2110866	119.8894	7.032426	32.34282
1231	6.06639	3.2120084	120.1920	7.031553	32.34981
1232	6.07087	3.2128680	120.4917	7.030567	32.35499
1233	6.07864	3.2151044	120.7852	7.028470	32.37239
1234	6.08891	3.2161138	121.0787	7.026695	32.37372
1235	6.09836	3.2166372	121.3693	7.025270	32.37040
1236	6.10543	3.2170360	121.6477	7.024202	32.36797
1237	6.11164	3.2181703	121.9294	7.022865	32.37456
1238	6.11891	3.2191240	122.2107	7.021489	32.37812
1239	6.12603	3.2195230	122.4926	7.020416	32.37564
1240	6.13168	3.2199843	122.7738	7.019493	32.37526
1241	6.13738	3.2212125	123.0403	7.018171	32.38339
1242	6.14674	3.2226592	123.3187	7.016289	32.39044
1243	6.15784	3.2248420	123.6364	7.013820	32.40401
1244	6.17246	3.2261707	123.9393	7.011357	32.40472
1245	6.18601	3.2268445	124.2511	7.009360	32.39916
1246	6.19646	3.2274310	124.5505	7.007788	32.39558
1247	6.20599	3.2290347	124.8443	7.005811	32.40420
1248	6.21776	3.2311942	125.1800	7.003279	32.41683
1249	6.23092	3.2317810	125.5100	7.001378	32.41066
1250	6.24066	3.2320245	125.8125	7.000070	32.40394
1251	6.24617	3.2321181	126.0882	6.999355	32.39960
1252	6.24944	3.2322430	126.3635	6.998899	32.39775
1253	6.25179	3.2325178	126.6301	6.998478	32.39844
1254	6.25398	3.2329237	126.9114	6.998010	32.40072
1255	6.25658	3.2335981	127.1991	6.997356	32.40559
1256	6.26062	3.2342788	127.4897	6.996525	32.40918
1257	6.26460	3.2346785	127.7742	6.995842	32.40969
1258	6.26817	3.2350220	128.0767	6.995238	32.40995
1259	6.26986	3.2352032	128.3642	6.994947	32.41022
1260	6.26848	3.2351471	128.6487	6.995150	32.41078
1261	6.26409	3.2348974	128.9214	6.995819	32.41205
1262	6.25878	3.2347102	129.2029	6.996568	32.41489
1263	6.25362	3.2345605	129.4964	6.997280	32.41799
1264	6.24867	3.2344045	129.7718	6.997970	32.42084
1265	6.24281	3.2340362	130.0565	6.998881	32.42220
1266	6.23582	3.2336305	130.3408	6.999947	32.42421
1267	6.22919	3.2334808	130.6315	7.000840	32.42873
1268	6.22307	3.2329815	130.9281	7.001849	32.42887
1269	6.21567	3.2326133	131.2154	7.002946	32.43168
1270	6.20726	3.2324574	131.5030	7.004061	32.43783
1271	6.19814	3.2320268	131.7906	7.005403	32.44160
1272	6.18637	3.2314714	132.0782	7.007133	32.44651
1273	6.17159	3.2309785	132.3687	7.009200	32.45499
1274	6.15718	3.2310099	132.6412	7.010955	32.46897
1275	6.14674	3.2314096	132.9256	7.012036	32.48325
1276	6.14155	3.2321527	133.2071	7.012299	32.49636
1277	6.13987	3.2324587	133.4826	7.012355	32.50124
1278	6.13545	3.2310417	133.7733	7.013628	32.48954
1279	6.12685	3.2300557	134.0728	7.015192	32.48663
1280	6.11677	3.2291010	134.3726	7.016922	32.48548
1281	6.10650	3.2285458	134.6631	7.018473	32.48897
1282	6.09785	3.2284523	134.9626	7.019588	32.49606
1283	6.09175	3.2282341	135.2925	7.020456	32.49930
1284	6.08759	3.2285463	135.6256	7.020816	32.50661
1285	6.08692	3.2297446	135.9191	7.020290	32.52047
1286	6.09145	3.2315673	136.1916	7.018808	32.53634
1287	6.09989	3.2326161	136.4640	7.017242	32.53983
1288	6.10782	3.2331718	136.7363	7.015991	32.53829
1289	6.11377	3.2332655	137.0145	7.015220	32.53350
1290	6.11657	3.2332031	137.2931	7.014915	32.52999
1291	6.11586	3.2325226	137.5867	7.015357	32.52294
1292	6.11179	3.2320920	137.8832	7.016083	32.52189
1293	6.10589	3.2316302	138.1800	7.017049	32.52225
1294	6.09994	3.2313806	138.4645	7.017913	32.52502
1295	6.09480	3.2307940	138.7640	7.018849	32.52325
1296	6.08769	3.2299640	139.0488	7.020154	32.52067
1297	6.07859	3.2288845	139.3271	7.021830	32.51720
1298	6.06528	3.2275930	139.6056	7.024133	32.51540
1299	6.05044	3.2270379	139.8751	7.026246	32.52329
1300	6.03623	3.2263893	140.1442	7.028333	32.52954
1301	6.02140	3.2251294	140.4107	7.030810	32.52954
1302	6.00501	3.2234643	140.6829	7.033689	32.52652
1303	5.98498	3.2214379	140.9583	7.037206	32.52294
1304	5.96348	3.2202536	141.2399	7.040473	32.53018
1305	5.94301	3.2189199	141.5244	7.043693	32.53476
1306	5.92458	3.2177796	141.8211	7.046565	32.53955
1307	5.90843	3.2170133	142.1209	7.048962	32.54634
1308	5.89578	3.2167705	142.4081	7.050658	32.55565
1309	5.88667	3.2164965	142.6865	7.051932	32.56120
1310	5.88019	3.2163408	142.9651	7.052820	32.56555
1311	5.87630	3.2164967	143.2284	7.053227	32.57092
1312	5.87438	3.2165529	143.4887	7.053441	32.57327
1313	5.87316	3.2164346	143.7459	7.053658	32.57298
1314	5.87235	3.2165531	144.0123	7.053703	32.57496
1315	5.87215	3.2166155	144.2814	7.053702	32.57573
1316	5.87215	3.2165844	144.5572	7.053724	32.57524
1317	5.87241	3.2165534	144.8448	7.053716	32.57451
1318	5.87251	3.2165846	145.1445	7.053694	32.57462
1319	5.87261	3.2165224	145.4712	7.053721	32.57366
1320	5.87286	3.2166783	145.7674	7.053615	32.57502
1321	5.87291	3.2166784	146.0552	7.053616	32.57483
1322	5.87291	3.2167906	146.3366	7.053564	32.57595
1323	5.87321	3.2168655	146.6092	7.053494	32.57637
1324	5.87377	3.2169217	146.8813	7.053402	32.57633
1325	5.87392	3.2169841	147.1538	7.053357	32.57675
1326	5.87402	3.2170776	147.4169	7.053302	32.57757
1327	5.87387	3.2172647	147.6865	7.053230	32.57969
1328	5.87347	3.2173271	147.9651	7.053254	32.58064
1329	5.86972	3.2170779	148.2496	7.053852	32.58131
1330	5.86345	3.2169534	148.5249	7.054699	32.58582
1331	5.85683	3.2167417	148.8151	7.055634	32.58968
1332	5.84950	3.2164988	149.1028	7.056674	32.59387
1333	5.84273	3.2161874	149.3749	7.057680	32.59677
1334	5.83429	3.2151470	149.6567	7.059271	32.59308
1335	5.82585	3.2147173	149.9233	7.060545	32.59625
1336	5.81828	3.2143811	150.1954	7.061665	32.59965
1337	5.81247	3.2142878	150.4741	7.062439	32.60406
1338	5.80828	3.2140449	150.7584	7.063091	32.60524
1339	5.80530	3.2141011	151.0457	7.063438	32.60860
1340	5.80348	3.2139393	151.3275	7.063754	32.60840
1341	5.80131	3.2134909	151.6119	7.064262	32.60531
1342	5.79808	3.2131235	151.8873	7.064860	32.60416
1343	5.79454	3.2129118	152.1658	7.065415	32.60506
1344	5.79000	3.2127251	152.4350	7.066082	32.60721
1345	5.78490	3.2129370	152.7104	7.066610	32.61438
1346	5.78364	3.2148994	152.9828	7.065751	32.63754
1347	5.78510	3.2147811	153.2582	7.065637	32.63466
1348	5.78071	3.2136162	153.5336	7.066794	32.62566
1349	5.77330	3.2132489	153.7999	7.067912	32.62856
1350	5.76593	3.2120531	154.0815	7.069455	32.62208
1351	5.75287	3.2088651	154.3781	7.072746	32.59866
1352	5.73078	3.2063880	154.6534	7.076790	32.59195
1353	5.70841	3.2054112	154.9319	7.080091	32.60242
1354	5.69083	3.2045713	155.2466	7.082725	32.60978
1355	5.67724	3.2040365	155.5610	7.084706	32.61674
1356	5.66662	3.2041300	155.8580	7.085987	32.62792
1357	5.66032	3.2041613	156.1271	7.086760	32.63423
1358	5.65685	3.2040680	156.3994	7.087248	32.63640
1359	5.65444	3.2038815	156.6871	7.087653	32.63649
1360	5.65162	3.2035456	156.9688	7.088187	32.63529
1361	5.64835	3.2034586	157.2652	7.088647	32.63733
1362	5.64553	3.2035770	157.5376	7.088943	32.64126
1363	5.64392	3.2037015	157.8279	7.089085	32.64408
1364	5.64382	3.2046785	158.1002	7.088591	32.65507
1365	5.64870	3.2071867	158.3638	7.086673	32.67853
1366	5.65982	3.2089982	158.6422	7.084345	32.68807
1367	5.67286	3.2101874	158.9267	7.082106	32.68871
1368	5.68751	3.2126348	159.2080	7.079009	32.70199
1369	5.70710	3.2160736	159.5015	7.074783	32.72163
1370	5.73260	3.2203678	159.8043	7.069384	32.74516
1371	5.76184	3.2228929	160.1038	7.064450	32.74509
1372	5.78768	3.2243958	160.3881	7.060477	32.73684
1373	5.80626	3.2247699	160.6757	7.057991	32.72291
1374	5.81600	3.2243645	160.9542	7.057003	32.70878
1375	5.81823	3.2241213	161.2177	7.056860	32.70377
1376	5.81721	3.2239031	161.4840	7.057105	32.70216
1377	5.81408	3.2234728	161.7352	7.057721	32.70023
1378	5.81019	3.2233856	162.0073	7.058254	32.70288
1379	5.80717	3.2235354	162.2858	7.058557	32.70736
1380	5.80540	3.2237226	162.5702	7.058685	32.71103
1381	5.80338	3.2229245	162.8546	7.059356	32.70387
1382	5.79757	3.2217835	163.1454	7.060674	32.69651
1383	5.78844	3.2204930	163.4419	7.062483	32.69069
1384	5.77779	3.2194771	163.7443	7.064338	32.68941
1385	5.76522	3.2177009	164.0348	7.066826	32.68143
1386	5.75045	3.2168411	164.3134	7.069113	32.68592
1387	5.73713	3.2158879	164.6007	7.071268	32.68793
1388	5.72584	3.2161934	164.8703	7.072516	32.70217
1389	5.71929	3.2168417	165.1605	7.072998	32.71568
1390	5.71410	3.2154273	165.4784	7.074388	32.70461
1391	5.70040	3.2128858	165.7812	7.077426	32.68909
1392	5.68187	3.2124563	166.0685	7.079961	32.70206
1393	5.67009	3.2134968	166.3531	7.080887	32.72508
1394	5.66818	3.2158270	166.6435	7.079911	32.75309
1395	5.67532	3.2178523	166.9399	7.077969	32.76886
1396	5.68600	3.2193295	167.2489	7.075877	32.77501
1397	5.69687	3.2199716	167.5451	7.074198	32.77154
1398	5.70574	3.2207135	167.8358	7.072717	32.77116
1399	5.71269	3.2214180	168.1262	7.071493	32.77221
1400	5.71813	3.2216612	168.4015	7.070698	32.76953
1401	5.72171	3.2226465	168.6680	7.069746	32.77703
1402	5.72398	3.2237567	168.9402	7.068891	32.78721
1403	5.72484	3.2243118	169.2186	7.068502	32.79250
1404	5.72504	3.2245864	169.5002	7.068340	32.79526
1405	5.72479	3.2247112	169.7848	7.068312	32.79677
1406	5.72438	3.2249234	170.0629	7.068258	32.79942
1407	5.72403	3.2253227	170.3686	7.068100	32.80411
1408	5.72373	3.2256222	170.6741	7.067988	32.80763
1409	5.72398	3.2259405	170.9740	7.067798	32.81083
1410	5.72383	3.2261277	171.2645	7.067725	32.81294
1411	5.72337	3.2262214	171.5336	7.067739	32.81430
1412	5.72287	3.2262215	171.7999	7.067807	32.81466
1413	5.72151	3.2262216	172.0572	7.067982	32.81586
1414	5.72020	3.2262217	172.3204	7.068150	32.81701
1415	5.71823	3.2258787	172.5866	7.068578	32.81492
1416	5.70846	3.2229286	172.8621	7.071337	32.79102
1417	5.68731	3.2206841	173.1406	7.075141	32.78612
1418	5.66334	3.2196995	173.4281	7.078638	32.79815
1419	5.64317	3.2192073	173.7519	7.081410	32.81206
1420	5.62783	3.2187463	174.1209	7.083566	32.82160
1421	5.61622	3.2186530	174.4567	7.085067	32.83169
1422	5.60883	3.2186844	174.7654	7.085976	32.83910
1423	5.60460	3.2187157	175.0588	7.086492	32.84342
1424	5.60234	3.2188093	175.3223	7.086730	32.84655
1425	5.60068	3.2187471	175.5944	7.086975	32.84733
1426	5.59928	3.2186848	175.9183	7.087190	32.84784
1427	5.59993	3.2200376	176.2240	7.086405	32.86235
1428	5.60455	3.2210227	176.5177	7.085319	32.86884
1429	5.61028	3.2217273	176.7808	7.084243	32.87109
1430	5.61637	3.2220703	177.0351	7.083313	32.86891
1431	5.62104	3.2224382	177.3016	7.082545	32.86837
1432	5.62547	3.2226066	177.5826	7.081913	32.86582
1433	5.62914	3.2232054	177.8671	7.081150	32.86887
1434	5.63401	3.2237605	178.1546	7.080259	32.87025
1435	5.63930	3.2244029	178.4388	7.079273	32.87222
1436	5.64428	3.2249269	178.7296	7.078387	32.87314
1437	5.64996	3.2256381	179.0171	7.077316	32.87549
1438	5.65534	3.2260686	179.2987	7.076429	32.87496
1439	5.66058	3.2265303	179.5799	7.075544	32.87494
1440	5.66485	3.2267736	179.8552	7.074893	32.87338
1441	5.66802	3.2269297	180.1275	7.074424	32.87192
1442	5.67029	3.2270233	180.3878	7.074100	32.87064
1443	5.67210	3.2271482	180.6539	7.073816	32.87015
1444	5.67331	3.2272106	180.9324	7.073640	32.86954
1445	5.67427	3.2273916	181.2019	7.073433	32.87052
1446	5.67558	3.2281655	181.4771	7.072872	32.87784
1447	5.67814	3.2292701	181.7435	7.071982	32.88768
1448	5.68152	3.2299504	182.0490	7.071215	32.89192
1449	5.68454	3.2304436	182.3275	7.070589	32.89441
1450	5.68680	3.2308119	182.6300	7.070123	32.89620
1451	5.68841	3.2310929	182.9083	7.069783	32.89767
1452	5.68942	3.2313676	183.1869	7.069521	32.89965
1453	5.69018	3.2316174	183.4561	7.069303	32.90160
1454	5.69083	3.2318048	183.7195	7.069130	32.90294
1455	5.69128	3.2319547	184.0007	7.069002	32.90405
1456	5.69189	3.2320172	184.2853	7.068901	32.90403
1457	5.69214	3.2321422	184.5664	7.068811	32.90505
1458	5.69259	3.2322359	184.8513	7.068712	32.90553
1459	5.69305	3.2323608	185.1384	7.068598	32.90636
1460	5.69355	3.2327293	185.4260	7.068349	32.90988
1461	5.69526	3.2340281	185.7163	7.067465	32.92272
1462	5.69778	3.2351398	186.0099	7.066579	32.93267
1463	5.70000	3.2358456	186.3036	7.065943	32.93832
1464	5.70070	3.2365890	186.6271	7.065475	32.94586
1465	5.69884	3.2367765	186.9448	7.065615	32.94964
1466	5.69496	3.2371452	187.2475	7.065908	32.95744
1467	5.69118	3.2374576	187.5167	7.066218	32.96452
1468	5.68877	3.2376389	187.7953	7.066429	32.96879
1469	5.68761	3.2377015	188.0676	7.066545	32.97050
1470	5.68675	3.2377641	188.3520	7.066625	32.97190
1471	5.68590	3.2378266	188.6452	7.066705	32.97329
1472	5.68554	3.2379517	188.9451	7.066690	32.97490
1473	5.68554	3.2379830	189.2414	7.066680	32.97511
1474	5.68534	3.2380143	189.5471	7.066696	32.97551
1475	5.68519	3.2380457	189.8465	7.066705	32.97586
1476	5.68524	3.2381395	190.1462	7.066657	32.97672
1477	5.68519	3.2382020	190.4247	7.066636	32.97734
1478	5.68499	3.2382584	190.7091	7.066638	32.97803
1479	5.68474	3.2383209	190.9692	7.066643	32.97886
1480	5.68398	3.2383523	191.2416	7.066726	32.97981
1481	5.68282	3.2383836	191.5079	7.066859	32.98117
1482	5.68121	3.2382587	191.7801	7.067130	32.98120
1483	5.67839	3.2384150	192.0526	7.067403	32.98558
1484	5.67366	3.2385401	192.3401	7.067929	32.99148
1485	5.66737	3.2385403	192.6301	7.068714	32.99749
1486	5.66148	3.2385092	192.9329	7.069465	33.00275
1487	5.65695	3.2385406	193.2358	7.070016	33.00738
1488	5.65368	3.2385407	193.5351	7.070427	33.01044
1489	5.65162	3.2385721	193.8045	7.070672	33.01268
1490	5.65006	3.2385409	194.0916	7.070888	33.01371
1491	5.64865	3.2385723	194.3762	7.071053	33.01530
1492	5.64739	3.2386036	194.6486	7.071198	33.01675
1493	5.64578	3.2386662	194.9178	7.071371	33.01890
1494	5.64458	3.2386975	195.1871	7.071510	33.02030
1495	5.64327	3.2388226	195.4596	7.071612	33.02286
1496	5.64216	3.2389102	195.7319	7.071710	33.02480
1497	5.64091	3.2389727	196.0133	7.071839	33.02660
1498	5.63950	3.2389728	196.2944	7.072020	33.02784
1499	5.63809	3.2390042	196.5910	7.072184	33.02943
1500	5.63693	3.2390043	196.9028	7.072335	33.03041
1501	5.63572	3.2390669	197.2053	7.072458	33.03215
1502	5.63462	3.2390982	197.4990	7.072585	33.03344
1503	5.63381	3.2391921	197.7891	7.072642	33.03515
1504	5.63336	3.2392546	198.0739	7.072672	33.03616
1505	5.63306	3.2393172	198.3550	7.072683	33.03702
1506	5.63271	3.2393485	198.6366	7.072717	33.03758
1507	5.63246	3.2393486	198.9089	7.072754	33.03769
1508	5.63236	3.2394112	199.1781	7.072740	33.03836
1509	5.63251	3.2394988	199.4381	7.072681	33.03908
1510	5.63251	3.2395926	199.6923	7.072638	33.04001
1511	5.63286	3.2397801	199.9221	7.072502	33.04167
1512	5.63326	3.2402426	200.0525	7.072212	33.04644
1513	5.63366	3.2403363	200.0827	7.072114	33.04709
1514	5.63522	3.2404300	200.0344	7.071871	33.04665
1515	5.63713	3.2406174	199.9951	7.071535	33.04691
1516	5.63864	3.2405237	199.9740	7.071397	33.04439
1517	5.63940	3.2405549	200.0015	7.071288	33.04399
1518	5.63914	3.2406174	200.0257	7.071287	33.04493
1519	5.63904	3.2410174	200.0194	7.071090	33.04955
1520	5.63909	3.2410174	199.9927	7.071083	33.04951
1521	5.63950	3.2410799	199.9532	7.071000	33.04985
1522	5.64131	3.2412361	199.9380	7.070693	33.04984
1523	5.64297	3.2413923	199.9354	7.070406	33.04999
1524	5.64362	3.2413611	199.9354	7.070342	33.04899
1525	5.64367	3.2414798	199.9415	7.070273	33.05028
1526	5.64357	3.2416673	199.9537	7.070188	33.05249
1527	5.64392	3.2418236	199.9596	7.070063	33.05391
1528	5.64438	3.2419173	199.9658	7.069958	33.05452
1529	5.64458	3.2420736	199.9722	7.069851	33.05609
1530	5.64493	3.2421048	199.9785	7.069791	33.05610
1531	5.64518	3.2418861	199.9633	7.069874	33.05338
1532	5.64578	3.2417611	199.9453	7.069865	33.05139
1533	5.64845	3.2417923	199.9390	7.069519	33.04913
1534	5.65172	3.2418547	199.9300	7.069081	33.04664
1535	5.65398	3.2419172	199.9271	7.068769	33.04513
1536	5.65549	3.2416672	199.8938	7.068712	33.04084
1537	5.65736	3.2413609	199.7729	7.068640	33.03561
1538	5.65801	3.2412046	199.5946	7.068637	33.03330
1539	5.65590	3.2411420	199.3587	7.068925	33.03478
1540	5.65398	3.2414232	199.1288	7.069009	33.03994
1541	5.65303	3.2419794	198.9203	7.068831	33.04727
1542	5.65273	3.2420106	198.7175	7.068847	33.04802
1543	5.65303	3.2420730	198.5151	7.068773	33.04853
1544	5.65303	3.2419792	198.3034	7.068817	33.04757
1545	5.65197	3.2418229	198.1009	7.069025	33.04694
1546	5.65021	3.2416354	197.8983	7.069336	33.04665
1547	5.64825	3.2414791	197.6986	7.069656	33.04690
1548	5.64594	3.2413290	197.5022	7.070016	33.04757
1549	5.64407	3.2411727	197.2935	7.070324	33.04773
1550	5.64272	3.2409227	197.0758	7.070617	33.04634
1551	5.64121	3.2408602	196.8608	7.070832	33.04722
1552	5.64040	3.2408601	196.6372	7.070926	33.04812
1553	5.63985	3.2406475	196.4073	7.071101	33.04637
1554	5.63899	3.2403975	196.1867	7.071333	33.04450
1555	5.63809	3.2403350	195.9841	7.071473	33.04478
1556	5.63779	3.2403349	195.7872	7.071506	33.04517
1557	5.63738	3.2403349	195.5879	7.071551	33.04566
1558	5.63698	3.2402723	195.3943	7.071629	33.04545
1559	5.63648	3.2402722	195.1948	7.071687	33.04604
1560	5.63623	3.2402409	195.0135	7.071730	33.04602
1561	5.63588	3.2403034	194.8170	7.071736	33.04717
1562	5.63577	3.2403346	194.6111	7.071728	33.04772
1563	5.63577	3.2403970	194.4026	7.071690	33.04853
1564	5.63588	3.2403969	194.1910	7.071673	33.04854
1565	5.63593	3.2402719	193.9671	7.071727	33.04718
1566	5.63598	3.2401468	193.7312	7.071781	33.04584
1567	5.63603	3.2399655	193.4951	7.071864	33.04386
1568	5.63638	3.2397467	193.2748	7.071930	33.04115
1569	5.63718	3.2396529	193.0659	7.071875	33.03940
1570	5.63864	3.2395279	192.8570	7.071755	33.03666
1571	5.63990	3.2395278	192.6607	7.071595	33.03553
1572	5.64085	3.2395277	192.4580	7.071472	33.03469
1573	5.64156	3.2395901	192.2495	7.071348	33.03481
1574	5.64241	3.2396213	192.0435	7.071221	33.03443
1575	5.64287	3.2397775	191.8378	7.071078	33.03585
1576	5.64342	3.2398086	191.6142	7.070988	33.03577
1577	5.64397	3.2399335	191.3906	7.070849	33.03675
1578	5.64443	3.2403646	191.1697	7.070562	33.04129
1579	5.64498	3.2404271	190.9458	7.070456	33.04157
1580	5.64548	3.2402708	190.7281	7.070471	33.03942
1581	5.64548	3.2400582	190.5223	7.070577	33.03712
1582	5.64553	3.2399644	190.3138	7.070616	33.03611
1583	5.64538	3.2399019	190.1144	7.070662	33.03565
1584	5.64538	3.2399955	189.9115	7.070609	33.03681
1585	5.64538	3.2400267	189.6969	7.070587	33.03727
1586	5.64558	3.2400891	189.4853	7.070525	33.03788
1587	5.64578	3.2403640	189.2676	7.070351	33.04090
1588	5.64629	3.2406452	189.0378	7.070136	33.04370
1589	5.64684	3.2407076	188.8257	7.070030	33.04397
1590	5.64704	3.2405513	188.6142	7.070082	33.04211
1591	5.64724	3.2403638	188.4026	7.070151	33.03990
1592	5.64719	3.2403949	188.1847	7.070136	33.04041
1593	5.64719	3.2404574	187.9823	7.070098	33.04122
1594	5.64744	3.2405510	187.7646	7.070013	33.04214
1595	5.64755	3.2404885	187.5464	7.070028	33.04144
1596	5.64790	3.2404571	187.3379	7.069996	33.04084
1597	5.64805	3.2403946	187.1353	7.070006	33.04009
1598	5.64810	3.2405195	186.9270	7.069929	33.04156
1599	5.64820	3.2406444	186.7182	7.069847	33.04297
1600	5.64845	3.2409506	186.4882	7.069650	33.04630
1601	5.64926	3.2410442	186.2430	7.069496	33.04669
1602	5.65227	3.2409191	186.0165	7.069183	33.04243
1603	5.65398	3.2408878	185.8138	7.068983	33.04050
1604	5.65454	3.2410440	185.6052	7.068828	33.04183
1605	5.65489	3.2412314	185.3813	7.068681	33.04372
1606	5.65529	3.2412313	185.1636	7.068626	33.04343
1607	5.65534	3.2411688	184.9579	7.068648	33.04277
1608	5.65544	3.2411687	184.7643	7.068631	33.04277
1609	5.65575	3.2412936	184.5558	7.068524	33.04399
1610	5.65655	3.2413561	184.3562	7.068387	33.04401
1611	5.65741	3.2413247	184.1505	7.068293	33.04292
1612	5.65801	3.2413247	183.9480	7.068214	33.04243
1613	5.65912	3.2413246	183.7392	7.068072	33.04144
1614	5.66083	3.2412620	183.5397	7.067889	33.03916
1615	5.66289	3.2412307	183.3247	7.067645	33.03689
1616	5.66460	3.2412618	183.1130	7.067412	33.03567
1617	5.66596	3.2412618	182.8984	7.067240	33.03445
1618	5.66697	3.2412929	182.6928	7.067094	33.03392
1619	5.66767	3.2413241	182.4870	7.066986	33.03368
1620	5.66828	3.2413865	182.2724	7.066874	33.03390
1621	5.66883	3.2413865	182.0728	7.066801	33.03346
1622	5.66928	3.2414427	181.8790	7.066711	33.03374
1623	5.66974	3.2414176	181.6798	7.066664	33.03312
1624	5.67019	3.2414175	181.4858	7.066603	33.03277
1625	5.67064	3.2414175	181.2954	7.066543	33.03242
1626	5.67104	3.2414424	181.0928	7.066475	33.03241
1627	5.67135	3.2415048	180.8843	7.066401	33.03292
1628	5.67130	3.2415673	180.6754	7.066369	33.03378
1629	5.67170	3.2415672	180.4638	7.066315	33.03349
1630	5.67210	3.2415359	180.2519	7.066276	33.03285
1631	5.67165	3.2414733	180.0436	7.066360	33.03269
1632	5.67069	3.2413233	179.8288	7.066552	33.03203
1633	5.66969	3.2411670	179.6139	7.066753	33.03136
1634	5.66903	3.2411044	179.4051	7.066862	33.03140
1635	5.66802	3.2411043	179.2085	7.066982	33.03248
1636	5.66636	3.2410106	179.0118	7.067232	33.03315
1637	5.66490	3.2409480	178.8095	7.067440	33.03397
1638	5.66420	3.2408855	178.6158	7.067556	33.03405
1639	5.66380	3.2407917	178.4161	7.067650	33.03348
1640	5.66350	3.2407354	178.2136	7.067712	33.03324
1641	5.66334	3.2406728	178.0171	7.067759	33.03278
1642	5.66329	3.2406415	177.8116	7.067777	33.03258
1643	5.66319	3.2405789	177.5966	7.067817	33.03208
1644	5.66239	3.2405789	177.3849	7.067912	33.03297
1645	5.66168	3.2405476	177.1732	7.068010	33.03341
1646	5.66063	3.2405163	176.9645	7.068153	33.03420
1647	5.66002	3.2404537	176.7558	7.068255	33.03419
1648	5.66012	3.2404537	176.5530	7.068238	33.03419
1649	5.66032	3.2404536	176.3533	7.068209	33.03409
1650	5.66012	3.2403910	176.1359	7.068261	33.03369
1651	5.65967	3.2403285	175.9057	7.068345	33.03354
1652	5.65987	3.2405159	175.7001	7.068217	33.03556
1653	5.65952	3.2406408	175.5157	7.068191	33.03741
1654	5.65972	3.2403908	175.3282	7.068293	33.03448
1655	5.66012	3.2403595	175.1317	7.068255	33.03383
1656	5.66058	3.2402969	174.9167	7.068227	33.03279
1657	5.66133	3.2402656	174.6932	7.068144	33.03180
1658	5.66118	3.2402030	174.4422	7.068190	33.03137
1659	5.66027	3.2401717	174.1424	7.068312	33.03205
1660	5.65897	3.2405466	173.8733	7.068271	33.03770
1661	5.65776	3.2405465	173.6465	7.068415	33.03900
1662	5.65721	3.2405152	173.4497	7.068495	33.03929
1663	5.65635	3.2405464	173.2595	7.068580	33.04057
1664	5.65595	3.2406088	173.0598	7.068593	33.04177
1665	5.65605	3.2405775	172.8602	7.068592	33.04142
1666	5.65620	3.2405150	172.6634	7.068602	33.04066
1667	5.65650	3.2404524	172.4669	7.068592	33.03975
1668	5.65731	3.2403586	172.2734	7.068538	33.03800
1669	5.65851	3.2402960	172.0615	7.068416	33.03622
1670	5.65977	3.2402335	171.8467	7.068289	33.03438
1671	5.66078	3.2402021	171.6291	7.068175	33.03315
1672	5.66098	3.2401708	171.4083	7.068162	33.03271
1673	5.66108	3.2401708	171.1936	7.068145	33.03272
1674	5.66078	3.2401395	170.9787	7.068193	33.03277
1675	5.66032	3.2400831	170.7670	7.068274	33.03268
1676	5.65977	3.2399894	170.5581	7.068387	33.03227
1677	5.65942	3.2399581	170.3555	7.068442	33.03236
1678	5.65932	3.2399267	170.1531	7.068466	33.03220
1679	5.65897	3.2398642	169.9534	7.068538	33.03194
1680	5.65866	3.2398329	169.7445	7.068587	33.03199
1681	5.65866	3.2398328	169.5360	7.068582	33.03209
1682	5.65866	3.2398015	169.3300	7.068594	33.03184
1683	5.65841	3.2397702	169.1215	7.068636	33.03183
1684	5.65846	3.2397389	168.9066	7.068641	33.03154
1685	5.65876	3.2397388	168.6889	7.068599	33.03135
1686	5.65912	3.2397075	168.4680	7.068567	33.03076
1687	5.65917	3.2396762	168.2533	7.068572	33.03046
1688	5.65932	3.2396449	168.0296	7.068565	33.03007
1689	5.65937	3.2396136	167.8116	7.068570	33.02978
1690	5.65922	3.2396135	167.5998	7.068584	33.03003
1691	5.65887	3.2396135	167.3942	7.068623	33.03048
1692	5.65846	3.2395509	167.1916	7.068700	33.03027
1693	5.65821	3.2395508	166.9768	7.068727	33.03062
1694	5.65836	3.2395195	166.7715	7.068720	33.03022
1695	5.65876	3.2394882	166.5625	7.068681	33.02958
1696	5.65882	3.2394632	166.3507	7.068683	33.02935
1697	5.65887	3.2394318	166.1239	7.068688	33.02906
1698	5.65917	3.2394005	165.8942	7.068662	33.02852
1699	5.65892	3.2394005	165.6763	7.068688	33.02888
1700	5.65836	3.2394316	165.4675	7.068736	33.02988
1701	5.65791	3.2394628	165.2710	7.068771	33.03077
1702	5.65791	3.2394003	165.0654	7.068799	33.03016
1703	5.65856	3.2392440	164.8564	7.068795	33.02786
1704	5.65907	3.2392127	164.6478	7.068744	33.02712
1705	5.65957	3.2391814	164.4330	7.068694	33.02638
1706	5.66002	3.2391813	164.2151	7.068633	33.02604
1707	5.66017	3.2391188	163.9974	7.068642	33.02530
1708	5.66038	3.2390562	163.7856	7.068645	33.02450
1709	5.66032	3.2389937	163.5740	7.068679	33.02394
1710	5.66043	3.2389936	163.3590	7.068661	33.02395
1711	5.66012	3.2389623	163.1684	7.068711	33.02399
1712	5.65972	3.2388997	162.9569	7.068788	33.02378
1713	5.65957	3.2388372	162.7571	7.068835	33.02332
1714	5.65937	3.2387497	162.5576	7.068901	33.02263
1715	5.65967	3.2387496	162.3548	7.068859	33.02243
1716	5.66073	3.2387183	162.1402	7.068740	33.02115
1717	5.66143	3.2386870	161.9193	7.068664	33.02022
1718	5.66214	3.2385932	161.7076	7.068621	33.01857
1719	5.66274	3.2384994	161.4895	7.068591	33.01703
1720	5.66314	3.2383744	161.2781	7.068602	33.01533
1721	5.66365	3.2382806	161.0722	7.068584	33.01388
1722	5.66390	3.2380681	160.8606	7.068659	33.01133
1723	5.66410	3.2379118	160.6576	7.068711	33.00947
1724	5.66415	3.2378805	160.4553	7.068717	33.00917
1725	5.66405	3.2376931	160.2495	7.068823	33.00725
1726	5.66370	3.2373869	160.0406	7.069022	33.00424
1727	5.66375	3.2371682	159.8288	7.069125	33.00183
1728	5.66420	3.2370744	159.6263	7.069114	33.00042
1729	5.66450	3.2368932	159.4084	7.069166	32.99819
1730	5.66460	3.2367057	159.1936	7.069247	32.99608
1731	5.66475	3.2365807	158.9849	7.069289	32.99462
1732	5.66470	3.2363933	158.7824	7.069389	32.99265
1733	5.66445	3.2361808	158.5677	7.069526	32.99060
1734	5.66415	3.2358373	158.3679	7.069739	32.98712
1735	5.66395	3.2355624	158.1776	7.069903	32.98430
1736	5.66385	3.2354374	157.9806	7.069977	32.98309
1737	5.66380	3.2353124	157.7780	7.070044	32.98182
1738	5.66370	3.2351937	157.5725	7.070114	32.98068
1739	5.66365	3.2354060	157.3608	7.070004	32.98324
1740	5.66355	3.2353435	157.1551	7.070044	32.98273
1741	5.66329	3.2350686	156.9340	7.070214	32.97998
1742	5.66279	3.2346939	156.7284	7.070468	32.97634
1743	5.66219	3.2345439	156.5136	7.070616	32.97534
1744	5.66178	3.2341067	156.2804	7.070890	32.97091
1745	5.66128	3.2341691	156.0506	7.070914	32.97222
1746	5.66078	3.2348810	155.8543	7.070599	32.98086
1747	5.66022	3.2348185	155.6726	7.070696	32.98078
1748	5.66007	3.2342626	155.4880	7.071002	32.97474
1749	5.66022	3.2335195	155.2887	7.071368	32.96629
1750	5.66053	3.2332759	155.0948	7.071453	32.96334
1751	5.66058	3.2333070	154.8890	7.071426	32.96375
1752	5.66068	3.2332445	154.6864	7.071442	32.96304
1753	5.66108	3.2333069	154.4747	7.071354	32.96346
1754	5.66188	3.2333068	154.2600	7.071250	32.96278
1755	5.66239	3.2332755	154.0421	7.071199	32.96204
1756	5.66274	3.2331818	153.8242	7.071199	32.96075
1757	5.66314	3.2329944	153.6151	7.071243	32.95834
1758	5.66390	3.2328133	153.4036	7.071239	32.95566
1759	5.66435	3.2329381	153.1949	7.071113	32.95673
1760	5.66470	3.2326258	152.9953	7.071229	32.95296
1761	5.66480	3.2319453	152.8048	7.071568	32.94526
1762	5.66506	3.2319764	152.6109	7.071516	32.94547
1763	5.66566	3.2319139	152.4206	7.071470	32.94426
1764	5.66687	3.2322260	152.2120	7.071152	32.94671
1765	5.66833	3.2322259	152.0058	7.070967	32.94539
1766	5.66948	3.2321322	151.7972	7.070868	32.94330
1767	5.67029	3.2317014	151.5856	7.070989	32.93775
1768	5.67110	3.2315140	151.3618	7.070982	32.93496
1769	5.67220	3.2312705	151.1468	7.070967	32.93124
1770	5.67331	3.2311143	150.9380	7.070907	32.92849
1771	5.67386	3.2311455	150.7202	7.070817	32.92841
1772	5.67412	3.2310830	150.5055	7.070814	32.92757
1773	5.67432	3.2309269	150.3059	7.070866	32.92571
1774	5.67432	3.2304649	150.1061	7.071103	32.92059
1775	5.67462	3.2300966	149.9034	7.071254	32.91623
1776	5.67512	3.2302525	149.7098	7.071106	32.91760
1777	5.67578	3.2304647	149.5130	7.070909	32.91946
1778	5.67658	3.2303398	149.3105	7.070870	32.91736
1779	5.67739	3.2301899	149.1081	7.070844	32.91498
1780	5.67814	3.2299714	148.9024	7.070860	32.91188
1781	5.67900	3.2295406	148.6903	7.070975	32.90628
1782	5.67975	3.2293533	148.4756	7.070975	32.90354
1783	5.68076	3.2292347	148.2640	7.070907	32.90132
1784	5.68182	3.2290786	148.0549	7.070853	32.89863
1785	5.68282	3.2288913	147.8310	7.070821	32.89564
1786	5.68353	3.2285230	147.6225	7.070922	32.89090
1787	5.68444	3.2285230	147.4226	7.070805	32.89011
1788	5.68549	3.2284605	147.2202	7.070702	32.88848
1789	5.68695	3.2281858	147.0175	7.070661	32.88405
1790	5.68877	3.2283979	146.8147	7.070320	32.88478
1791	5.69093	3.2281857	146.5970	7.070158	32.88038
1792	5.69310	3.2282168	146.3758	7.069869	32.87873
1793	5.69516	3.2280607	146.1613	7.069690	32.87506
1794	5.69642	3.2273805	145.9523	7.069885	32.86626
1795	5.69783	3.2268875	145.7315	7.069963	32.85943
1796	5.69949	3.2267938	145.5165	7.069801	32.85687
1797	5.70100	3.2267064	145.2928	7.069655	32.85452
1798	5.70161	3.2263319	145.0810	7.069771	32.84981
1799	5.70191	3.2262445	144.8756	7.069774	32.84863
1800	5.70201	3.2262133	144.6726	7.069773	32.84828
1801	5.70196	3.2259949	144.4729	7.069889	32.84596
1802	5.70236	3.2255644	144.2640	7.070060	32.84082
1803	5.70252	3.2255019	144.0524	7.070069	32.84007
1804	5.70292	3.2255018	143.8528	7.070014	32.83977
1805	5.70352	3.2253146	143.6410	7.070032	32.83718
1806	5.70362	3.2250089	143.4201	7.070175	32.83374
1807	5.70327	3.2245784	143.2113	7.070439	32.82933
1808	5.70287	3.2242166	142.9964	7.070673	32.82575
1809	5.70236	3.2233808	142.7847	7.071167	32.81691
1810	5.70171	3.2234681	142.5790	7.071198	32.81863
1811	5.70121	3.2234680	142.3581	7.071256	32.81923
1812	5.70085	3.2232559	142.1521	7.071406	32.81728
1813	5.70040	3.2232246	141.9404	7.071473	32.81748
1814	5.70025	3.2229190	141.7318	7.071647	32.81428
1815	5.70020	3.2226695	141.5322	7.071779	32.81161
1816	5.70055	3.2225759	141.3205	7.071779	32.81032
1817	5.70080	3.2221144	141.1115	7.071985	32.80497
1818	5.70116	3.2219958	140.9120	7.071999	32.80338
1819	5.70146	3.2221454	140.6944	7.071878	32.80489
1820	5.70191	3.2215966	140.4853	7.072104	32.79836
1821	5.70257	3.2214407	140.2704	7.072099	32.79607
1822	5.70367	3.2213471	140.0526	7.072006	32.79404
1823	5.70524	3.2214093	139.8349	7.071775	32.79333
1824	5.70649	3.2211910	139.6230	7.071728	32.78975
1825	5.70780	3.2209478	139.4022	7.071688	32.78584
1826	5.70881	3.2207045	139.1873	7.071685	32.78223
1827	5.71012	3.2206421	138.9753	7.071550	32.78036
1828	5.71138	3.2203615	138.7729	7.071536	32.77607
1829	5.71259	3.2204861	138.5639	7.071316	32.77640
1830	5.71390	3.2200559	138.3645	7.071374	32.77037
1831	5.71531	3.2201244	138.1554	7.071159	32.76988
1832	5.71733	3.2204235	137.9528	7.070748	32.77140
1833	5.72015	3.2203923	137.7291	7.070409	32.76841
1834	5.72262	3.2205168	137.5079	7.070033	32.76753
1835	5.72448	3.2203297	137.2963	7.069895	32.76371
1836	5.72569	3.2200553	137.0695	7.069883	32.75956
1837	5.72781	3.2195628	136.8151	7.069872	32.75208
1838	5.73038	3.2198120	136.5670	7.069418	32.75251
1839	5.73265	3.2231914	136.3492	7.067367	32.78852
1840	5.73285	3.2221125	136.1556	7.067901	32.77625
1841	5.73129	3.2201484	135.9530	7.069115	32.75573
1842	5.72897	3.2194128	135.7500	7.069782	32.74979
1843	5.72715	3.2193504	135.5442	7.070035	32.75095
1844	5.72781	3.2189202	135.3328	7.070174	32.74557
1845	5.73270	3.2186396	135.1178	7.069709	32.73777
1846	5.73784	3.2187953	134.8997	7.068985	32.73464
1847	5.74152	3.2187641	134.6761	7.068540	32.73083
1848	5.74455	3.2186393	134.4368	7.068225	32.72661
1849	5.74833	3.2186704	134.2160	7.067735	32.72340
1850	5.75186	3.2187326	133.9921	7.067260	32.72079
1851	5.75453	3.2189195	133.7774	7.066827	32.72041
1852	5.75604	3.2186327	133.5626	7.066784	32.71582
1853	5.75730	3.2182711	133.3568	7.066811	32.71063
1854	5.75872	3.2181214	133.1482	7.066710	32.70768
1855	5.76063	3.2181774	132.9515	7.066438	32.70655
1856	5.76321	3.2182397	132.7516	7.066083	32.70486
1857	5.76517	3.2181212	132.5426	7.065896	32.70172
1858	5.76770	3.2183641	132.3186	7.065452	32.70212
1859	5.77082	3.2184887	132.1039	7.064994	32.70060
1860	5.77395	3.2183016	131.8829	7.064699	32.69558
1861	5.77663	3.2180584	131.6592	7.064490	32.69036
1862	5.77925	3.2178714	131.4443	7.064257	32.68582
1863	5.78203	3.2178090	131.2237	7.063941	32.68254
1864	5.78374	3.2179024	131.0086	7.063675	32.68204
1865	5.78495	3.2179023	130.7968	7.063520	32.68097
1866	5.78632	3.2177215	130.5850	7.063441	32.67772
1867	5.78869	3.2178086	130.3794	7.063097	32.67651
1868	5.79091	3.2179643	130.1676	7.062736	32.67622
1869	5.79197	3.2177773	129.9584	7.062697	32.67319
1870	5.79469	3.2179953	129.7590	7.062242	32.67310
1871	5.80000	3.2182757	129.5410	7.061434	32.67124
1872	5.80525	3.2183317	129.3321	7.060751	32.66689
1873	5.80989	3.2186370	129.1114	7.060012	32.66595
1874	5.81292	3.2186369	128.9026	7.059632	32.66312
1875	5.81494	3.2184872	128.6940	7.059455	32.65959
1876	5.81782	3.2184559	128.4757	7.059110	32.65656
1877	5.82121	3.2187612	128.2670	7.058528	32.65682
1878	5.82484	3.2192536	128.0585	7.057818	32.65895
1879	5.82838	3.2191288	127.8404	7.057440	32.65424
1880	5.83282	3.2194653	127.6286	7.056711	32.65383
1881	5.83793	3.2195275	127.4318	7.056043	32.64969
1882	5.84263	3.2195586	127.2203	7.055441	32.64561
1883	5.84804	3.2191907	126.9813	7.054957	32.63637
1884	5.85405	3.2190659	126.7451	7.054273	32.62928
1885	5.85956	3.2190346	126.5334	7.053603	32.62372
1886	5.86118	3.2201129	126.3244	7.052839	32.63437
1887	5.85572	3.2192838	126.1067	7.053939	32.63043
1888	5.84647	3.2193150	125.8890	7.055062	32.63982
1889	5.85173	3.2194957	125.6770	7.054313	32.63688
1890	5.86244	3.2194082	125.4590	7.053029	32.62566
1891	5.87043	3.2194704	125.2471	7.052005	32.61876
1892	5.87736	3.2199253	125.0474	7.050908	32.61728
1893	5.88470	3.2203865	124.8478	7.049759	32.61548
1894	5.89031	3.2204799	124.6389	7.049012	32.61122
1895	5.89552	3.2208165	124.4301	7.048190	32.61008
1896	5.90144	3.2210034	124.2153	7.047357	32.60657
1897	5.90620	3.2214335	124.0035	7.046543	32.60692
1898	5.90969	3.2214334	123.7857	7.046107	32.60366
1899	5.91319	3.2213086	123.5769	7.045736	32.59900
1900	5.91795	3.2214955	123.3621	7.045047	32.59662
1901	5.92296	3.2214642	123.1470	7.044440	32.59154
1902	5.92630	3.2215265	122.9353	7.043991	32.58913
1903	5.92878	3.2220502	122.7264	7.043409	32.59271
1904	5.93106	3.2218942	122.5148	7.043204	32.58887
1905	5.93268	3.2217694	122.3027	7.043064	32.58602
1906	5.93658	3.2218628	122.0909	7.042530	32.58342
1907	5.94190	3.2221370	121.8729	7.041727	32.58148
1908	5.94560	3.2225672	121.6492	7.041044	32.58285
1909	5.94869	3.2226607	121.4374	7.040610	32.58103
1910	5.95249	3.2226917	121.2165	7.040121	32.57783
1911	5.95690	3.2229660	121.0045	7.039431	32.57676
1912	5.96100	3.2230594	120.8018	7.038873	32.57396
1913	5.96495	3.2231841	120.5963	7.038317	32.57166
1914	5.96825	3.2232463	120.3873	7.037874	32.56929
1915	5.96967	3.2231028	120.1788	7.037768	32.56642
1916	5.96982	3.2229656	119.9697	7.037816	32.56484
1917	5.97018	3.2230902	119.7578	7.037703	32.56600
1918	5.97159	3.2230901	119.5371	7.037523	32.56474
1919	5.97362	3.2230589	119.3192	7.037285	32.56255
1920	5.97682	3.2231523	119.0952	7.036838	32.56063
1921	5.98108	3.2233393	118.8740	7.036212	32.55874
1922	5.98554	3.2235200	118.6502	7.035564	32.55659
1923	5.98802	3.2234887	118.4356	7.035270	32.55395
1924	5.98838	3.2237381	118.2265	7.035093	32.55651
1925	5.98787	3.2237381	118.0146	7.035151	32.55710
1926	5.98802	3.2238877	117.8030	7.035050	32.55873
1927	5.98741	3.2239812	117.5940	7.035072	32.56046
1928	5.98645	3.2238626	117.3791	7.035247	32.56017
1929	5.98701	3.2239187	117.1523	7.035144	32.56037
1930	5.98772	3.2237689	116.9132	7.035129	32.55813
1931	5.98736	3.2235194	116.7041	7.035296	32.55578
1932	5.98863	3.2234570	116.4834	7.035167	32.55397
1933	5.98635	3.2234257	116.2626	7.035459	32.55592
1934	5.97621	3.2232137	116.0415	7.036813	32.56340
1935	5.97306	3.2235816	115.8177	7.037005	32.57065
1936	5.98077	3.2239183	115.5997	7.035878	32.56712
1937	5.98828	3.2238620	115.3757	7.034978	32.55938
1938	5.99304	3.2239180	115.1640	7.034357	32.55553
1939	5.99781	3.2237058	114.9494	7.033874	32.54868
1940	6.00116	3.2236870	114.7403	7.033467	32.54536
1941	6.00243	3.2237057	114.5285	7.033297	32.54446
1942	6.00395	3.2236432	114.3167	7.033137	32.54240
1943	6.00583	3.2236743	114.1043	7.032885	32.54105
1944	6.00720	3.2237366	113.8897	7.032680	32.54054
1945	6.00943	3.2236430	113.6688	7.032448	32.53745
1946	6.01100	3.2237364	113.4508	7.032202	32.53709
1947	6.01298	3.2237675	113.2239	7.031937	32.53565
1948	6.01430	3.2239795	113.0060	7.031661	32.53686
1949	6.01597	3.2242601	112.7878	7.031305	32.53850
1950	6.01897	3.2242600	112.5610	7.030932	32.53574
1951	6.02069	3.2242911	112.3434	7.030699	32.53454
1952	6.02333	3.2243471	112.1313	7.030341	32.53273
1953	6.02673	3.2244094	111.9166	7.029886	32.53027
1954	6.02932	3.2246588	111.6987	7.029434	32.53068
1955	6.03156	3.2246587	111.4896	7.029155	32.52864
1956	6.03196	3.2246898	111.2751	7.029084	32.52870
1957	6.03333	3.2248145	111.0599	7.028847	32.52889
1958	6.03587	3.2248394	110.8542	7.028517	32.52683
1959	6.03826	3.2248143	110.6393	7.028232	32.52437
1960	6.04034	3.2246271	110.4216	7.028067	32.52038
1961	6.04186	3.2247829	110.1942	7.027795	32.52078
1962	6.04496	3.2250885	109.9643	7.027252	32.52133
1963	6.04857	3.2249324	109.7466	7.026884	32.51624
1964	6.05065	3.2249635	109.5257	7.026607	32.51470
1965	6.05395	3.2251818	109.3047	7.026084	32.51408
1966	6.05822	3.2254873	109.0896	7.025398	32.51351
1967	6.06213	3.2255184	108.8719	7.024897	32.51021
1968	6.06436	3.2252126	108.6570	7.024774	32.50476
1969	6.06472	3.2252750	108.4422	7.024694	32.50522
1970	6.06655	3.2254870	108.2213	7.024355	32.50594
1971	6.06838	3.2252436	107.9971	7.024250	32.50158
1972	6.06883	3.2251499	107.7760	7.024237	32.50021
1973	6.07056	3.2252434	107.5492	7.023972	32.49971
1974	6.07351	3.2256738	107.3220	7.023384	32.50180
1975	6.07757	3.2256424	107.0984	7.022896	32.49766
1976	6.07905	3.2254864	106.8653	7.022790	32.49462
1977	6.07976	3.2253928	106.6503	7.022745	32.49300
1978	6.08184	3.2255798	106.4383	7.022389	32.49320
1979	6.08687	3.2254549	106.2295	7.021830	32.48709
1980	6.08926	3.2250868	106.0056	7.021720	32.48080
1981	6.08962	3.2250244	105.7965	7.021704	32.47987
1982	6.09175	3.2253923	105.5758	7.021248	32.48204
1983	6.09475	3.2254546	105.3579	7.020843	32.47997
1984	6.09587	3.2251488	105.1459	7.020858	32.47559
1985	6.09486	3.2250552	104.9311	7.021026	32.47562
1986	6.09531	3.2252984	104.7191	7.020840	32.47800
1987	6.09816	3.2249927	104.5045	7.020643	32.47197
1988	6.09923	3.2248117	104.2925	7.020599	32.46903
1989	6.09943	3.2248678	104.0746	7.020541	32.46957
1990	6.10024	3.2250236	103.8508	7.020356	32.47064
1991	6.10152	3.2250859	103.6297	7.020163	32.47023
1992	6.10279	3.2252418	103.4086	7.019922	32.47086
1993	6.10431	3.2253290	103.1939	7.019686	32.47047
1994	6.10523	3.2252978	102.9758	7.019584	32.46936
1995	6.10650	3.2252977	102.7668	7.019424	32.46824
1996	6.10808	3.2255783	102.5519	7.019082	32.46997
1997	6.10904	3.2254348	102.3493	7.019032	32.46754
1998	6.10874	3.2251478	102.1344	7.019212	32.46474
1999	6.10930	3.2251789	101.9254	7.019122	32.46465
2000	6.11047	3.2252973	101.7046	7.018913	32.46496
2001	6.11036	3.2251476	101.4896	7.018998	32.46349
2002	6.11031	3.2250851	101.2719	7.019031	32.46295
2003	6.11042	3.2248667	101.0570	7.019125	32.46052
2004	6.10955	3.2247170	100.8481	7.019304	32.45978
2005	6.10864	3.2240994	100.6269	7.019727	32.45387
2006	6.10757	3.2240682	100.4151	7.019869	32.45465
2007	6.10792	3.2239122	100.2093	7.019901	32.45267
2008	6.10701	3.2233633	99.9915	7.020289	32.44753
2009	6.10492	3.2229329	99.7856	7.020761	32.44482
2010	6.10335	3.2229890	99.5706	7.020921	32.44706
2011	6.10304	3.2228393	99.3531	7.021030	32.44578
2012	6.10172	3.2227145	99.1499	7.021252	32.44575
2013	6.09994	3.2225585	98.9353	7.021546	32.44582
2014	6.09892	3.2223777	98.7230	7.021758	32.44488
2015	6.09755	3.2220970	98.5083	7.022066	32.44316
2016	6.09653	3.2217602	98.3025	7.022359	32.44048
2017	6.09536	3.2216355	98.0907	7.022562	32.44031
2018	6.09409	3.2213611	97.8876	7.022854	32.43856
2019	6.09282	3.2209308	97.6788	7.023226	32.43507
2020	6.09165	3.2205941	97.4669	7.023537	32.43254
2021	6.09074	3.2205629	97.2671	7.023661	32.43316
2022	6.09028	3.2204007	97.0553	7.023796	32.43189
2023	6.08962	3.2199767	96.8373	7.024089	32.42790
2024	6.08865	3.2200702	96.6256	7.024155	32.42997
2025	6.08814	3.2195153	96.4169	7.024497	32.42436
2026	6.08733	3.2190851	96.2049	7.024813	32.42044
2027	6.08672	3.2188731	95.9927	7.024992	32.41876
2028	6.08637	3.2190538	95.7749	7.024938	32.42122
2029	6.08540	3.2189042	95.5723	7.025129	32.42058
2030	6.08469	3.2184117	95.3602	7.025464	32.41586
2031	6.08382	3.2182247	95.1607	7.025662	32.41470
2032	6.08372	3.2179815	94.9578	7.025794	32.41218
2033	6.08352	3.2176761	94.7549	7.025971	32.40906
2034	6.08255	3.2175825	94.5428	7.026133	32.40905
2035	6.08255	3.2178255	94.3311	7.026004	32.41186
2036	6.08276	3.2178566	94.1311	7.025959	32.41211
2037	6.08240	3.2171212	93.9043	7.026374	32.40435
2038	6.08205	3.2168158	93.6832	7.026570	32.40139
2039	6.08210	3.2168780	93.4624	7.026526	32.40214
2040	6.08255	3.2167845	93.2444	7.026513	32.40077
2041	6.08316	3.2161238	93.0324	7.026772	32.39292
2042	6.08316	3.2158309	92.8147	7.026917	32.38976
2043	6.08357	3.2156751	92.6087	7.026942	32.38773
2044	6.08408	3.2156501	92.4090	7.026888	32.38706
2045	6.08454	3.2155877	92.2092	7.026859	32.38603
2046	6.08474	3.2150643	92.0005	7.027098	32.38009
2047	6.08525	3.2152760	91.7857	7.026922	32.38208
2048	6.08687	3.2153071	91.5735	7.026701	32.38097
2049	6.08830	3.2153382	91.3466	7.026505	32.38007
2050	6.08982	3.2153069	91.1316	7.026329	32.37837
2051	6.09135	3.2150950	90.9074	7.026245	32.37466
2052	6.09303	3.2149703	90.6867	7.026097	32.37178
2053	6.09460	3.2147273	90.4839	7.026023	32.36766
2054	6.09582	3.2144219	90.2659	7.026025	32.36320
2055	6.09669	3.2140231	90.0599	7.026118	32.35803
2056	6.09785	3.2139608	89.8602	7.026001	32.35631
2057	6.09943	3.2137115	89.6482	7.025930	32.35213
2058	6.10141	3.2139170	89.4395	7.025576	32.35264
2059	6.10426	3.2140789	89.2276	7.025138	32.35183
2060	6.10645	3.2143280	89.0188	7.024737	32.35262
2061	6.10833	3.2142967	88.8066	7.024517	32.35059
2062	6.11097	3.2142032	88.5951	7.024235	32.34713
2063	6.11377	3.2143277	88.3770	7.023822	32.34595
2064	6.11596	3.2139289	88.1589	7.023752	32.33953
2065	6.11769	3.2139288	87.9441	7.023535	32.33799
2066	6.11993	3.2138976	87.7257	7.023270	32.33561
2067	6.12222	3.2139598	87.5111	7.022952	32.33423
2068	6.12466	3.2140531	87.2871	7.022599	32.33305
2069	6.12695	3.2144517	87.0509	7.022108	32.33543
2070	6.12975	3.2161962	86.8420	7.020868	32.35231
2071	6.12914	3.2142959	86.6576	7.021910	32.33180
2072	6.12359	3.2132555	86.4517	7.023120	32.32559
2073	6.12018	3.2135607	86.2307	7.023378	32.33234
2074	6.12410	3.2132367	86.0126	7.023057	32.32510
2075	6.13076	3.2129749	85.7825	7.022366	32.31595
2076	6.13646	3.2135292	85.5557	7.021376	32.31682
2077	6.14125	3.2136537	85.3348	7.020720	32.31376
2078	6.14664	3.2136535	85.1046	7.020051	32.30873
2079	6.15204	3.2140521	84.8773	7.019179	32.30815
2080	6.15769	3.2141392	84.6657	7.018436	32.30385
2081	6.16299	3.2140519	84.4507	7.017825	32.29795
2082	6.16849	3.2141078	84.2386	7.017115	32.29344
2083	6.17322	3.2139893	84.0328	7.016589	32.28772
2084	6.17852	3.2141076	83.8271	7.015874	32.28410
2085	6.18412	3.2141697	83.6241	7.015149	32.27957
2086	6.19070	3.2143254	83.4154	7.014258	32.27516
2087	6.19712	3.2145993	83.2035	7.013325	32.27222
2088	6.20344	3.2148484	82.9857	7.012417	32.26909
2089	6.20986	3.2151536	82.7585	7.011469	32.26650
2090	6.21649	3.2154027	82.5404	7.010524	32.26308
2091	6.22261	3.2152156	82.3194	7.009863	32.25531
2092	6.22863	3.2153339	82.1044	7.009060	32.25102
2093	6.23434	3.2150907	81.8836	7.008478	32.24301
2094	6.23975	3.2151529	81.6806	7.007778	32.23867
2095	6.24572	3.2157011	81.4840	7.006764	32.23920
2096	6.25260	3.2153645	81.2719	7.006085	32.22903
2097	6.26118	3.2157008	81.0660	7.004859	32.22475
2098	6.26960	3.2161929	80.8661	7.003572	32.22233
2099	6.27736	3.2162239	80.6605	7.002601	32.21543
2100	6.28390	3.2161615	80.4485	7.001827	32.20865
2101	6.29074	3.2161613	80.2334	7.000984	32.20228
2102	6.29810	3.2163481	80.0096	6.999984	32.19750
2103	6.30464	3.2165287	79.7915	6.999087	32.19343
2104	6.30964	3.2164974	79.5614	6.998484	32.18846
2105	6.31409	3.2166531	79.3375	6.997856	32.18609
2106	6.31803	3.2167153	79.1287	6.997338	32.18316
2107	6.32166	3.2168087	78.9165	6.996842	32.18087
2108	6.32559	3.2170204	78.7139	6.996249	32.17959
2109	6.32902	3.2167150	78.4990	6.995980	32.17308
2110	6.33280	3.2166526	78.2962	6.995544	32.16891
2111	6.33776	3.2169890	78.0903	6.994762	32.16805
2112	6.34252	3.2174812	77.8721	6.993927	32.16912
2113	6.34533	3.2174188	77.6571	6.993610	32.16587
2114	6.34998	3.2176991	77.4240	6.992894	32.16470
2115	6.35725	3.2175120	77.1758	6.992095	32.15589
2116	6.36385	3.2188955	76.9608	6.990585	32.16508
2117	6.36554	3.2174806	76.7550	6.991088	32.14793
2118	6.35663	3.2168387	76.5400	6.992496	32.14932
2119	6.34175	3.2173872	76.3312	6.994035	32.16954
2120	6.33807	3.2175430	76.1195	6.994402	32.17485
2121	6.34548	3.2173871	75.8984	6.993569	32.16622
2122	6.35837	3.2176361	75.6832	6.991862	32.15692
2123	6.37106	3.2179102	75.4593	6.990167	32.14809
2124	6.38135	3.2183712	75.2476	6.988673	32.14359
2125	6.39220	3.2187699	75.0265	6.987141	32.13788
2126	6.40270	3.2187698	74.7930	6.985854	32.12810
2127	6.41018	3.2192870	74.5813	6.984676	32.12688
2128	6.41561	3.2197544	74.3663	6.983773	32.12703
2129	6.42299	3.2195672	74.1544	6.982962	32.11812
2130	6.43216	3.2200907	73.9397	6.981575	32.11537
2131	6.44169	3.2202464	73.7308	6.980329	32.10822
2132	6.44728	3.2202712	73.5184	6.979630	32.10334
2133	6.45544	3.2209195	73.3068	6.978306	32.10293
2134	6.46559	3.2212871	73.0886	6.976879	32.09755
2135	6.47421	3.2214429	72.8645	6.975745	32.09127
2136	6.48308	3.2221473	72.6405	6.974306	32.09081
2137	6.48924	3.2223031	72.4285	6.973473	32.08684
2138	6.49283	3.2225150	72.2077	6.972924	32.08591
2139	6.49751	3.2223964	71.9987	6.972411	32.08032
2140	6.50136	3.2223963	71.7838	6.971937	32.07680
2141	6.50690	3.2229200	71.5750	6.970995	32.07747
2142	6.51527	3.2227951	71.3690	6.970035	32.06834
2143	6.51964	3.2229446	71.1571	6.969424	32.06599
2144	6.52662	3.2232875	70.9481	6.968398	32.06331
2145	6.53941	3.2233809	70.7331	6.966790	32.05245
2146	6.54918	3.2240543	70.5121	6.965262	32.05081
2147	6.55596	3.2246716	70.2941	6.964124	32.05136
2148	6.56388	3.2246403	70.0794	6.963173	32.04369
2149	6.57565	3.2250393	69.8551	6.961538	32.03716
2150	6.58414	3.2249019	69.6311	6.960571	32.02781
2151	6.58862	3.2248207	69.4100	6.960063	32.02283
2152	6.59474	3.2251636	69.1981	6.959144	32.02097
2153	6.59860	3.2254068	68.9771	6.958549	32.02014
2154	6.59860	3.2252258	68.7593	6.958635	32.01826
2155	6.60024	3.2249763	68.5561	6.958555	32.01407
2156	6.60477	3.2250385	68.3443	6.957969	32.01061
2157	6.61213	3.2255935	68.1203	6.956794	32.00994
2158	6.61841	3.2257182	67.9174	6.955966	32.00553
2159	6.62588	3.2262109	67.7025	6.954810	32.00407
2160	6.63458	3.2267036	67.4811	6.953505	32.00145
2161	6.64195	3.2269780	67.2483	6.952470	31.99769
2162	6.65137	3.2266097	67.0210	6.951505	31.98495
2163	6.65550	3.2269153	66.8062	6.950849	31.98456
2164	6.63839	3.2261792	66.5881	6.953284	31.99255
2165	6.61877	3.2261170	66.3671	6.955690	32.01031
2166	6.62660	3.2262977	66.1523	6.954646	32.00509
2167	6.63793	3.2258047	65.9343	6.953512	31.98918
2168	6.65225	3.2258045	65.7250	6.951771	31.97590
2169	6.66920	3.2260850	65.5135	6.949572	31.96326
2170	6.68240	3.2267024	65.3102	6.947662	31.95782
2171	6.69524	3.2272201	65.0925	6.945845	31.95163
2172	6.70932	3.2274694	64.8805	6.944012	31.94133
2173	6.72393	3.2277750	64.6654	6.942088	31.93118
2174	6.73704	3.2273754	64.4474	6.940694	31.91470
2175	6.74628	3.2273440	64.2265	6.939587	31.90586
2176	6.75522	3.2276871	64.0145	6.938332	31.90141
2177	6.76286	3.2274685	63.8087	6.937511	31.89200
2178	6.76927	3.2272812	63.5937	6.936824	31.88410
2179	6.77521	3.2273747	63.3817	6.936055	31.87970
2180	6.78193	3.2276241	63.1729	6.935116	31.87629
2181	6.79263	3.2282355	62.9580	6.933516	31.87314
2182	6.80266	3.2286035	62.7427	6.932119	31.86795
2183	6.81156	3.2289153	62.5279	6.930886	31.86321
2184	6.82226	3.2290712	62.3098	6.929512	31.85508
2185	6.83427	3.2288213	62.0948	6.928181	31.84132
2186	6.84446	3.2289772	61.8828	6.926869	31.83367
2187	6.85238	3.2286962	61.6740	6.926047	31.82336
2188	6.86062	3.2286711	61.4650	6.925062	31.81556
2189	6.86771	3.2289767	61.2439	6.924052	31.81244
2190	6.87476	3.2291638	61.0351	6.923106	31.80806
2191	6.88418	3.2294071	60.8172	6.921845	31.80209
2192	6.89553	3.2294693	60.6085	6.920442	31.79237
2193	6.90377	3.2290385	60.3992	6.919656	31.78015
2194	6.91046	3.2291008	60.1753	6.918814	31.77476
2195	6.91762	3.2290694	59.9659	6.917963	31.76790
2196	6.92778	3.2296871	59.7540	6.916432	31.76535
2197	6.93707	3.2298055	59.5390	6.915251	31.75816
2198	6.94739	3.2294683	59.3209	6.914169	31.74507
2199	6.95637	3.2300237	59.1092	6.912812	31.74293
2200	6.96405	3.2301483	58.8821	6.911822	31.73731
2201	6.96712	3.2304853	58.6671	6.911284	31.73825
2202	6.96841	3.2303604	58.4491	6.911184	31.73580
2203	6.97065	3.2297736	58.2338	6.911198	31.72745
2204	6.97574	3.2296861	58.0223	6.910624	31.72191
2205	6.98212	3.2295611	57.8163	6.909912	31.71476
2206	6.98820	3.2298356	57.6194	6.909043	31.71224
2207	6.99547	3.2288494	57.4076	6.908645	31.69492
2208	7.00342	3.2286371	57.1862	6.907788	31.68540
2209	7.00929	3.2287243	56.9835	6.907035	31.68104
2210	7.01335	3.2280503	56.7626	6.906871	31.67009
2211	7.01777	3.2281437	56.5411	6.906290	31.66715
2212	7.02390	3.2280188	56.3113	6.905609	31.66026
2213	7.02972	3.2281996	56.0872	6.904816	31.65698
2214	7.03591	3.2276504	55.8721	6.904335	31.64543
2215	7.04168	3.2274007	55.6512	6.903758	31.63752
2216	7.04507	3.2274006	55.4543	6.903347	31.63451
2217	7.04881	3.2265395	55.2425	6.903312	31.62182
2218	7.04944	3.2267515	55.0455	6.903129	31.62365
2219	7.05011	3.2265705	54.8334	6.903132	31.62116
2220	7.05032	3.2268450	54.6246	6.902969	31.62404
2221	7.05204	3.2263208	54.4096	6.903013	31.61688
2222	7.05323	3.2258279	54.1826	6.903104	31.61054
2223	7.05625	3.2260149	53.9586	6.902646	31.60990
2224	7.06015	3.2255532	53.7280	6.902397	31.60142
2225	7.06275	3.2253660	53.4981	6.902170	31.59711
2226	7.06609	3.2249666	53.2741	6.901959	31.58983
2227	7.06733	3.2243490	53.0618	6.902105	31.58208
2228	7.06921	3.2245673	52.8502	6.901769	31.58283
2229	7.07431	3.2248416	52.6412	6.901018	31.58124
2230	7.07785	3.2244423	52.4320	6.900783	31.57376
2231	7.07988	3.2241989	52.2233	6.900653	31.56936
2232	7.08290	3.2241989	52.0233	6.900286	31.56669
2233	7.08566	3.2238557	51.8234	6.900116	31.56053
2234	7.08883	3.2234565	51.6114	6.899924	31.55340
2235	7.09118	3.2230884	51.4056	6.899817	31.54736
2236	7.09389	3.2233690	51.1875	6.899351	31.54802
2237	7.09977	3.2237680	50.9601	6.898445	31.54707
2238	7.10602	3.2238552	50.7391	6.897648	31.54240
2239	7.11196	3.2229632	50.5121	6.897362	31.52742
2240	7.11832	3.2218282	50.3000	6.897144	31.50941
2241	7.12311	3.2215225	50.0822	6.896712	31.50182
2242	7.12473	3.2217968	49.8675	6.896381	31.50342
2243	7.12551	3.2212418	49.6580	6.896551	31.49679
2244	7.12676	3.2213352	49.4551	6.896351	31.49676
2245	7.12785	3.2209985	49.2403	6.896379	31.49221
2246	7.13077	3.2208113	49.0281	6.896114	31.48762
2247	7.13119	3.2211230	48.8284	6.895909	31.49071
2248	7.13333	3.2208112	48.6044	6.895799	31.48548
2249	7.13771	3.2203185	48.3984	6.895507	31.47625
2250	7.14224	3.2201688	48.1834	6.895030	31.47059
2251	7.14699	3.2201687	47.9773	6.894456	31.46636
2252	7.15116	3.2196449	47.7653	6.894204	31.45699
2253	7.15397	3.2189093	47.5474	6.894217	31.44657
2254	7.15716	3.2193393	47.3355	6.893623	31.44842
2255	7.16060	3.2194888	47.1143	6.893133	31.44700
2256	7.16415	3.2187843	46.8933	6.893043	31.43625
2257	7.16780	3.2185411	46.6814	6.892717	31.43040
2258	7.17312	3.2185410	46.4661	6.892074	31.42565
2259	7.18053	3.2178927	46.2482	6.891493	31.41200
2260	7.18627	3.2179549	46.0422	6.890770	31.40755
2261	7.19039	3.2178613	45.8391	6.890316	31.40288
2262	7.19316	3.2169388	45.6363	6.890425	31.39049
2263	7.19457	3.2166022	45.4394	6.890414	31.38567
2264	7.19755	3.2164214	45.2365	6.890140	31.38110
2265	7.20292	3.2161721	45.0338	6.889610	31.37362
2266	7.20804	3.2159975	44.8249	6.889076	31.36718
2267	7.21259	3.2154989	44.6007	6.888766	31.35778
2268	7.21687	3.2151312	44.3823	6.888425	31.35002
2269	7.22204	3.2151310	44.1555	6.887800	31.34543
2270	7.22784	3.2145764	43.9346	6.887366	31.33429
2271	7.23385	3.2135048	43.7045	6.887157	31.31739
2272	7.23996	3.2130126	43.4891	6.886655	31.30664
2273	7.24446	3.2128318	43.2953	6.886199	31.30070
2274	7.24707	3.2128629	43.0805	6.885866	31.29877
2275	7.25031	3.2119098	42.8806	6.885932	31.28565
2276	7.25559	3.2114489	42.6894	6.885516	31.27599
2277	7.25941	3.2112682	42.4775	6.885140	31.27069
2278	7.26249	3.2112992	42.2747	6.884751	31.26833
2279	7.26600	3.2110500	42.0718	6.884446	31.26257
2280	7.26971	3.2107448	41.8596	6.884143	31.25602
2281	7.27363	3.2102839	41.6356	6.883889	31.24761
2282	7.28064	3.2095926	41.4175	6.883376	31.23393
2283	7.28676	3.2095800	41.1996	6.882643	31.22837
2284	7.28980	3.2093371	40.9844	6.882391	31.22311
2285	7.29231	3.2082662	40.7663	6.882599	31.20941
2286	7.30006	3.2075626	40.5454	6.882003	31.19495
2287	7.30597	3.2071018	40.3363	6.881510	31.18475
2288	7.30911	3.2064606	40.1273	6.881437	31.17511
2289	7.31173	3.2063983	39.9394	6.881149	31.17217
2290	7.31409	3.2061555	39.7398	6.880978	31.16753
2291	7.31545	3.2043507	39.5460	6.881677	31.14697
2292	7.31707	3.2038902	39.3429	6.881699	31.14064
2293	7.32110	3.2041950	39.1491	6.881064	31.14038
2294	7.32446	3.2032927	38.9402	6.881090	31.12776
2295	7.32828	3.2030997	38.7160	6.880719	31.12234
2296	7.33378	3.2029130	38.4890	6.880144	31.11550
2297	7.34169	3.2031554	38.2557	6.879074	31.11110
2298	7.34703	3.2025145	38.0072	6.878734	31.09953
2299	7.34934	3.2016000	37.7891	6.878891	31.08772
2300	7.34971	3.2033418	37.5712	6.878009	31.10622
2301	7.34735	3.1993733	37.3684	6.880188	31.06576
2302	7.33153	3.1985774	37.1713	6.882466	31.07149
2303	7.32356	3.1974831	36.9805	6.883943	31.06695
2304	7.32828	3.1976944	36.7926	6.883272	31.06508
2305	7.33797	3.1977191	36.5959	6.882091	31.05674
2306	7.34923	3.1979987	36.3900	6.880600	31.04974
2307	7.36166	3.1972089	36.1780	6.879482	31.03022
2308	7.37398	3.1971155	35.9509	6.878042	31.01828
2309	7.38352	3.1969350	35.7236	6.876978	31.00791
2310	7.39254	3.1963505	35.4964	6.876170	30.99367
2311	7.39978	3.1962322	35.2632	6.875353	30.98603
2312	7.40587	3.1948584	35.0513	6.875274	30.96594
2313	7.40771	3.1932487	34.8391	6.875817	30.94713
2314	7.40776	3.1941186	34.6363	6.875392	30.95651
2315	7.41091	3.1925464	34.4364	6.875760	30.93692
2316	7.41028	3.1933355	34.2424	6.875455	30.94604
2317	7.41500	3.1919683	34.0425	6.875537	30.92725
2318	7.41694	3.1910860	33.8337	6.875720	30.91615
2319	7.41889	3.1910549	33.6217	6.875498	30.91418
2320	7.42634	3.1914524	33.4067	6.874408	30.91189
2321	7.42886	3.1890172	33.1943	6.875263	30.88363
2322	7.42676	3.1884706	32.9762	6.875772	30.87974
2323	7.43054	3.1869552	32.7616	6.876036	30.86023
2324	7.43143	3.1865267	32.5493	6.876129	30.85494
2325	7.43690	3.1865576	32.3284	6.875453	30.85051
2326	7.44304	3.1871039	32.1224	6.874450	30.85099
2327	7.44682	3.1857068	31.9102	6.874657	30.83276
2328	7.44525	3.1851294	31.6922	6.875118	30.82807
2329	7.44336	3.1846141	31.4832	6.875586	30.82432
2330	7.44288	3.1843285	31.2590	6.875775	30.82179
2331	7.44383	3.1851602	31.0500	6.875260	30.82995
2332	7.44672	3.1847628	30.8351	6.875098	30.82322
2333	7.45071	3.1842785	30.6261	6.874845	30.81458
2334	7.45318	3.1834281	30.4234	6.874949	30.80337
2335	7.45265	3.1838873	30.2052	6.874789	30.80886
2336	7.45349	3.1837941	29.9899	6.874728	30.80721
2337	7.45764	3.1829437	29.7691	6.874630	30.79452
2338	7.45833	3.1827574	29.5326	6.874632	30.79202
2339	7.46421	3.1826394	29.3055	6.873976	30.78564
2340	7.47436	3.1834585	29.0964	6.872363	30.78550
2341	7.48492	3.1832473	28.8693	6.871190	30.77397
2342	7.49087	3.1825768	28.6453	6.870790	30.76164
2343	7.48960	3.1819127	28.4301	6.871253	30.75575
2344	7.48540	3.1817886	28.2303	6.871814	30.75823
2345	7.47478	3.1819252	28.0152	6.873021	30.76920
2346	7.46195	3.1809138	27.7969	6.875040	30.76984
2347	7.45134	3.1797908	27.5910	6.876847	30.76732
2348	7.44787	3.1800017	27.3730	6.877159	30.77275
2349	7.44456	3.1788850	27.1426	6.878085	30.76383
2350	7.44798	3.1785189	26.9307	6.877844	30.75698
2351	7.45465	3.1781838	26.6977	6.877197	30.74758
2352	7.46400	3.1774207	26.4643	6.876430	30.73123
2353	7.47141	3.1772159	26.2341	6.875631	30.72258
2354	7.47904	3.1779724	26.0067	6.874350	30.72403
2355	7.48067	3.1763722	25.7858	6.874911	30.70557
2356	7.47798	3.1761861	25.5768	6.875318	30.70604
2357	7.47462	3.1763411	25.3586	6.875644	30.71078
2358	7.46999	3.1759504	25.1498	6.876383	30.71078
2359	7.47078	3.1758573	24.9376	6.876328	30.70918
2360	7.47867	3.1750076	24.7224	6.875779	30.69321
2361	7.48456	3.1741023	24.5042	6.875497	30.67842
2362	7.48640	3.1753112	24.2864	6.874696	30.68982
2363	7.49129	3.1751871	24.0591	6.874162	30.68427
2364	7.49460	3.1745856	23.8289	6.874045	30.67502
2365	7.49318	3.1738725	23.6016	6.874550	30.66875
2366	7.49344	3.1741886	23.3776	6.874364	30.67200
2367	7.49418	3.1744923	23.1566	6.874127	30.67469
2368	7.49676	3.1740397	22.9385	6.874027	30.66767
2369	7.49712	3.1736490	22.7112	6.874164	30.66327
2370	7.49618	3.1733142	22.5023	6.874433	30.66062
2371	7.49949	3.1738720	22.2811	6.873765	30.66376
2372	7.50191	3.1744299	22.0723	6.873205	30.66768
2373	7.50370	3.1739153	21.8572	6.873230	30.66069
2374	7.50596	3.1737044	21.6359	6.873053	30.65654
2375	7.50617	3.1735245	21.4178	6.873109	30.65453
2376	7.50507	3.1734625	21.2028	6.873267	30.65494
2377	7.50249	3.1727247	20.9753	6.873924	30.64943
2378	7.49833	3.1723156	20.7513	6.874614	30.64882
2379	7.49549	3.1725263	20.5211	6.874851	30.65369
2380	7.49465	3.1719560	20.3060	6.875219	30.64843
2381	7.49323	3.1722535	20.0759	6.875244	30.65296
2382	7.49234	3.1717699	19.8364	6.875577	30.64869
2383	7.49155	3.1711315	19.6185	6.875971	30.64266
2384	7.49087	3.1706852	19.3940	6.876261	30.63859
2385	7.49081	3.1706232	19.1729	6.876293	30.63807
2386	7.49023	3.1703814	18.9580	6.876473	30.63609
2387	7.48897	3.1700777	18.7431	6.876765	30.63405
2388	7.48782	3.1697492	18.5369	6.877057	30.63165
2389	7.48708	3.1704618	18.3309	6.876802	30.64002
2390	7.48629	3.1716827	18.1130	6.876312	30.65387
2391	7.48403	3.1717694	17.8856	6.876538	30.65689
2392	7.48009	3.1719553	17.6462	6.876920	30.66247
2393	7.47578	3.1741560	17.4069	6.876387	30.68993
2394	7.47362	3.1736723	17.1739	6.876872	30.68677
2395	7.47105	3.1711309	16.9404	6.878387	30.66196
2396	7.46758	3.1698976	16.7132	6.879388	30.65192
2397	7.46889	3.1686892	16.4952	6.879801	30.63793
2398	7.47173	3.1684227	16.2801	6.879581	30.63267
2399	7.47572	3.1683297	16.0712	6.879140	30.62824
2400	7.48487	3.1679392	15.8590	6.878219	30.61609
2401	7.49760	3.1682302	15.6500	6.876543	30.60808
2402	7.51438	3.1679078	15.4411	6.874671	30.58994
2403	7.52827	3.1682979	15.2228	6.872809	30.58197
2404	7.53254	3.1681491	15.0049	6.872362	30.57672
2405	7.53275	3.1692023	14.7775	6.871833	30.58789
2406	7.52969	3.1696856	14.5564	6.871966	30.59583
2407	7.52796	3.1717679	14.3354	6.871182	30.61971
2408	7.52859	3.1720715	14.1019	6.870958	30.62250
2409	7.53259	3.1718297	13.8807	6.870587	30.61649
2410	7.53448	3.1725858	13.6535	6.869996	30.62300
2411	7.52890	3.1724060	13.4296	6.870748	30.62609
2412	7.52201	3.1718606	13.2053	6.871831	30.62645
2413	7.51975	3.1699765	12.9840	6.872994	30.60841
2414	7.52275	3.1691398	12.7721	6.873026	30.59692
2415	7.52843	3.1650141	12.5567	6.874296	30.54794
2416	7.53585	3.1608285	12.3387	6.875384	30.49683
2417	7.54422	3.1534346	12.1327	6.877879	30.41067
2418	7.55412	3.1560880	11.9146	6.875422	30.43041
2419	7.55728	3.1532550	11.6965	6.876380	30.39752
2420	7.55755	3.1573376	11.4907	6.874408	30.44093
2421	7.55528	3.1635953	11.2664	6.871710	30.50978
2422	7.55117	3.1657628	11.0453	6.871172	30.53662
2423	7.55070	3.1619916	10.8151	6.873013	30.49689
2424	7.55549	3.1624497	10.5940	6.872214	30.49767
2425	7.55976	3.1661837	10.3668	6.869926	30.53387
2426	7.56171	3.1686306	10.1426	6.868528	30.55836
2427	7.56166	3.1723116	9.9275	6.866786	30.59779
2428	7.56129	3.1723736	9.7092	6.866796	30.59888
2429	7.56123	3.1730368	9.4852	6.866484	30.60610
2430	7.56066	3.1731607	9.2671	6.866490	30.60803
2431	7.55923	3.1726151	9.0459	6.866915	30.60356
2432	7.55381	3.1705574	8.8216	6.868538	30.58647
2433	7.54991	3.1692622	8.6066	6.869617	30.57617
2434	7.54780	3.1688099	8.3913	6.870081	30.57329
2435	7.54486	3.1662203	8.1793	6.871659	30.54833
2436	7.54507	3.1632291	7.9550	6.873048	30.51631
2437	7.54786	3.1619103	7.7371	6.873334	30.49988
2438	7.54865	3.1526230	7.5220	6.877640	30.40019
2439	7.54754	3.1343205	7.2978	6.886454	30.20608
2440	7.55307	3.1163231	7.0704	6.894320	30.00964
2441	7.56171	3.0823287	6.8495	6.909400	29.64067
2442	7.57172	3.0427079	6.6251	6.926979	29.21161
2443	7.58363	3.0095975	6.3979	6.941226	28.85093
2444	7.59328	2.9826405	6.1799	6.952824	28.55791
2445	7.60197	2.9627181	5.9495	6.961194	28.34045
2446	7.61110	2.9428578	5.7316	6.969476	28.12360
2447	7.61970	2.9236304	5.5164	6.977518	27.91415
2448	7.62745	2.9185710	5.3045	6.978936	27.85476
2449	7.63405	2.9123925	5.0831	6.981030	27.78455
2450	7.63959	2.9059250	4.8589	6.983394	27.71219
2451	7.64402	2.8986001	4.6438	6.986303	27.63174
2452	7.64825	2.8899952	4.4261	6.989846	27.53805
2453	7.65173	2.8888760	4.2075	6.989929	27.52363
2454	7.65532	2.8801026	3.9804	6.993630	27.42875
2455	7.65812	2.8774671	3.7562	6.994520	27.39897
2456	7.66071	2.8752088	3.5230	6.995257	27.37333
2457	7.66282	2.8688438	3.3048	6.998003	27.30497
2458	7.66467	2.8690466	3.0743	6.997666	27.30574
2459	7.66630	2.8689331	2.8564	6.997507	27.30335
2460	7.66815	2.8644819	2.6443	6.999378	27.25530
2461	7.66979	2.8612196	2.4292	7.000712	27.21990
2462	7.67127	2.8620722	2.2173	7.000115	27.22777
2463	7.67270	2.8617561	2.0052	7.000079	27.22342
2464	7.67328	2.8706399	1.7780	6.995789	27.31623
2465	7.67196	2.8912630	1.5477	6.986178	27.53380
2466	7.66974	2.9013134	1.3051	6.981693	27.64121
2467	7.66932	2.8635748	1.0477	6.999631	27.24552
2468	7.67127	2.8538947	0.8143	7.003967	27.14260
2469	7.67365	2.8513991	0.6082	7.004843	27.11467
2470	7.67460	2.8539244	0.4176	7.003520	27.14048
2471	7.67433	2.8580058	0.2356	7.001615	27.18354
2472	7.67301	2.9532077	0.0268	6.956682	28.18497
2473	7.66572	2.9565207	-0.1093	6.956025	28.22583
2474	7.62666	2.9717094	-0.1067	6.953720	28.41776
2475	7.60424	3.0419369	-0.1099	6.923202	29.17902
2476	7.59270	3.1036906	-0.1127	6.895348	29.84427
2477	7.59581	3.1110767	-0.1129	6.891470	29.92013
2478	7.61600	3.1145966	-0.1129	6.887349	29.94017
2479	7.63516	1.2354901	-0.1128	7.785244	10.90649
2480	7.64186	0.6589520	-0.1156	8.058433	5.54371
2481	7.64080	0.6838302	-0.1098	8.046945	5.76849
2482	7.63943	0.5813015	-0.1099	8.095231	4.84777
2483	7.63737	0.5268217	-0.1129	8.120980	4.36404
2484	7.63526	0.4913963	-0.1101	8.137804	4.05173
2485	7.63289	0.4365167	-0.1071	8.163576	3.57137
2486	7.63062	0.4102127	-0.1101	8.176092	3.34287
2487	7.62830	0.3908082	-0.1162	8.185426	3.17508
2488	7.62597	0.3833254	-0.1194	8.189299	3.11067
2489	7.62365	0.3725341	-0.1162	8.194678	3.01784
2490	7.62165	0.3564805	-0.1073	8.202384	2.87999
2491	7.61943	0.3341045	-0.1134	8.212982	2.68856
2492	7.61738	0.3140007	-0.1073	8.222487	2.51737
2493	7.61511	0.3148511	-0.1102	8.222551	2.52477
2494	7.61300	0.3488596	-0.1105	8.207550	2.81532
2495	7.61094	0.3880256	-0.1073	8.190091	3.15260
2496	7.60872	0.3673972	-0.1073	8.199947	2.97490
2497	7.60546	0.3559526	-0.1135	8.205805	2.87679
2498	7.60261	0.3254187	-0.1166	8.220237	2.61570
2499	7.59987	0.3275399	-0.1135	8.219816	2.63400
2500	7.59733	0.2856895	-0.1197	8.239222	2.27876
2501	7.59475	0.2833888	-0.1137	8.240770	2.25950
2502	7.59280	0.2648643	-0.1138	8.249475	2.10355
2503	7.59043	0.2655337	-0.1136	8.249647	2.10932
2504	7.58816	0.2475211	-0.1075	8.258159	1.95839
2505	7.58595	0.2395313	-0.1166	8.262166	1.89174
2506	7.58431	0.2514857	-0.1108	8.257155	1.99179
2507	7.58252	0.2614375	-0.1078	8.253058	2.07537
2508	7.58068	0.2860059	-0.1169	8.242387	2.28253
2509	7.57915	0.3014793	-0.1109	8.235709	2.41370
2510	7.57778	0.2945041	-0.1200	8.239131	2.35464
2511	7.57625	0.2705661	-0.1138	8.250212	2.15252
2512	7.57430	0.2639296	-0.1141	8.253579	2.09680
2513	7.57246	0.2474457	-0.1139	8.261328	1.95863
2514	7.57040	0.2333958	-0.1111	8.268009	1.84139
2515	7.56840	0.2110698	-0.1111	8.278330	1.65601
2516	7.56671	0.2017214	-0.1111	8.282806	1.57881
2517	7.56524	0.1998506	-0.1140	8.283929	1.56344
2518	7.56376	0.1824005	-0.1141	8.291916	1.41998
2519	7.56234	0.1687869	-0.1111	8.298175	1.30868
2520	7.56150	0.1627422	-0.1112	8.300988	1.25945
2521	7.56066	0.1543306	-0.1081	8.304828	1.19112
2522	7.55997	0.1482658	-0.1139	8.307606	1.14200
2523	7.55913	0.1438431	-0.1173	8.309697	1.10627
