Scan Count	Temperature [ITS-90, deg C]	Conductivity [S/m]	Depth [salt water, m]	Oxygen Saturation, Weiss [ml/l]	Salinity, Practical [PSU]
1	17.74070	0.0099130	-0.0552	6.647442	0.05723
2	17.73924	0.0095629	-0.0551	6.647718	0.05536
3	17.73722	0.0097581	-0.0581	6.647954	0.05641
4	17.73486	0.0101485	-0.0522	6.648197	0.05849
5	17.73249	0.0101918	-0.0492	6.648513	0.05872
6	17.73006	0.0100927	-0.0491	6.648870	0.05820
7	17.72804	0.0099316	-0.0522	6.649182	0.05734
8	17.72637	0.0096775	-0.0491	6.649466	0.05599
9	17.72436	0.0094916	-0.0491	6.649783	0.05500
10	17.72255	0.0092996	-0.0461	6.650073	0.05398
11	17.72088	0.0092996	-0.0552	6.650303	0.05398
12	17.71886	0.0093368	-0.0552	6.650573	0.05418
13	17.71740	0.0092376	-0.0552	6.650795	0.05365
14	17.71566	0.0092686	-0.0552	6.651028	0.05382
15	17.71420	0.0093894	-0.0522	6.651204	0.05446
16	17.71261	0.0092593	-0.0491	6.651452	0.05377
17	17.71087	0.0090487	-0.0552	6.651736	0.05266
18	17.70899	0.0090921	-0.0552	6.651985	0.05289
19	17.70461	0.0101020	-0.0523	6.652374	0.05827
20	17.70030	0.0096434	-0.0492	6.653066	0.05583
21	17.69745	0.0092005	-0.0583	6.653553	0.05347
22	17.69370	0.0088319	-0.0491	6.654149	0.05152
23	17.68231	0.0083241	-0.0491	6.655828	0.04884
24	17.67356	0.0079495	-0.0491	6.657115	0.04687
25	17.67050	0.0077917	-0.0492	6.657570	0.04604
26	17.66821	0.0078783	-0.0521	6.657868	0.04650
27	17.66620	0.0083891	-0.0491	6.658038	0.04920
28	17.66432	0.0084634	-0.0583	6.658281	0.04959
29	17.66016	0.0083179	-0.0491	6.658887	0.04882
30	17.65273	0.0082931	-0.0552	6.659918	0.04870
31	17.64725	0.0083117	-0.0522	6.660671	0.04880
32	17.64330	0.0083736	-0.0492	6.661205	0.04913
33	17.64038	0.0083272	-0.0522	6.661617	0.04889
34	17.63879	0.0083427	-0.0461	6.661834	0.04897
35	17.63699	0.0084634	-0.0492	6.662058	0.04961
36	17.63490	0.0085966	-0.0552	6.662317	0.05032
37	17.63074	0.0089310	-0.0522	6.662822	0.05210
38	17.62318	0.0088505	-0.0612	6.663884	0.05168
39	17.61119	0.0089496	-0.0521	6.665521	0.05221
40	17.57642	0.0090921	-0.0521	6.670305	0.05300
41	17.55129	0.0089248	-0.0491	6.673823	0.05213
42	17.53933	0.0087762	-0.0582	6.675514	0.05135
43	17.53379	0.0086616	-0.0552	6.676306	0.05074
44	17.52951	0.0085966	-0.0491	6.676915	0.05040
45	17.52121	0.0085625	-0.0520	6.678074	0.05023
46	17.51679	0.0085161	-0.0490	6.678698	0.04998
47	17.51520	0.0084449	-0.0491	6.678934	0.04960
48	17.51388	0.0084046	-0.0490	6.679125	0.04939
49	17.51312	0.0082932	-0.0521	6.679254	0.04880
50	17.51243	0.0081724	-0.0521	6.679376	0.04816
51	17.51181	0.0080950	-0.0520	6.679478	0.04775
52	17.51119	0.0080238	-0.0460	6.679580	0.04737
53	17.51063	0.0078845	-0.0492	6.679686	0.04664
54	17.51008	0.0079340	-0.0521	6.679753	0.04690
55	17.50925	0.0078938	-0.0551	6.679876	0.04669
56	17.50842	0.0078164	-0.0491	6.680008	0.04628
57	17.50794	0.0077421	-0.0521	6.680091	0.04589
58	17.50732	0.0076988	-0.0460	6.680186	0.04566
59	17.50663	0.0076369	-0.0520	6.680295	0.04533
60	17.50594	0.0075657	-0.0460	6.680407	0.04496
61	17.49930	0.0075007	-0.0460	6.681342	0.04462
62	17.49267	0.0074326	-0.0521	6.682278	0.04426
63	17.49053	0.0073862	-0.0490	6.682585	0.04402
64	17.48984	0.0073274	-0.0520	6.682693	0.04371
65	17.48970	0.0072593	-0.0551	6.682727	0.04335
66	17.48929	0.0072222	-0.0551	6.682792	0.04315
67	17.48874	0.0072005	-0.0489	6.682874	0.04304
68	17.48805	0.0071510	-0.0491	6.682980	0.04278
69	17.48770	0.0071108	-0.0520	6.683037	0.04257
70	17.48735	0.0070613	-0.0489	6.683095	0.04231
71	17.48653	0.0070335	-0.0490	6.683216	0.04216
72	17.48590	0.0069809	-0.0521	6.683314	0.04189
73	17.48521	0.0069097	-0.0521	6.683425	0.04151
74	17.48439	0.0068571	-0.0521	6.683551	0.04124
75	17.48370	0.0068014	-0.0520	6.683659	0.04095
76	17.48294	0.0067705	-0.0550	6.683771	0.04078
77	17.48225	0.0067395	-0.0489	6.683874	0.04062
78	17.48149	0.0066746	-0.0430	6.683993	0.04028
79	17.48066	0.0066498	-0.0490	6.684113	0.04015
80	17.47969	0.0066312	-0.0459	6.684252	0.04006
81	17.47865	0.0066034	-0.0459	6.684401	0.03991
82	17.47776	0.0065787	-0.0489	6.684531	0.03978
83	17.47672	0.0065632	-0.0489	6.684679	0.03970
84	17.47548	0.0065415	-0.0519	6.684856	0.03959
85	17.47472	0.0065137	-0.0520	6.684967	0.03944
86	17.47355	0.0064704	-0.0459	6.685140	0.03922
87	17.47223	0.0064425	-0.0520	6.685328	0.03907
88	17.47113	0.0064178	-0.0490	6.685487	0.03894
89	17.46968	0.0063900	-0.0458	6.685694	0.03880
90	17.46871	0.0063467	-0.0519	6.685838	0.03857
91	17.46720	0.0063281	-0.0459	6.686053	0.03848
92	17.46582	0.0063003	-0.0519	6.686251	0.03833
93	17.46492	0.0062848	-0.0489	6.686379	0.03825
94	17.46312	0.0062477	-0.0549	6.686636	0.03806
95	17.46216	0.0062260	-0.0519	6.686775	0.03795
96	17.46057	0.0062013	-0.0458	6.687001	0.03782
97	17.45919	0.0061796	-0.0459	6.687198	0.03771
98	17.45781	0.0061116	-0.0519	6.687404	0.03735
99	17.19410	0.5590738	-0.0066	6.581002	3.61135
100	14.98551	1.4764358	0.0723	6.596502	10.84593
101	12.85683	2.9779506	0.1783	6.337760	24.66409
102	11.32846	2.9852069	0.2751	6.505828	25.76055
103	10.26113	3.0087797	0.3871	6.619286	26.75250
104	9.51444	3.0182461	0.4901	6.702981	27.40598
105	9.06033	3.0341238	0.5900	6.750079	27.91730
106	8.78887	3.0425294	0.6869	6.778842	28.21727
107	8.62451	3.0517184	0.7808	6.794469	28.44302
108	8.53087	3.0587528	0.8777	6.802564	28.59103
109	8.48956	3.0695137	0.9504	6.802675	28.73575
110	8.52375	3.0871440	0.9745	6.790619	28.89018
111	8.71452	3.0973566	0.9685	6.763294	28.83988
112	8.97826	3.1079750	0.9685	6.727381	28.73494
113	9.16467	3.0978558	0.9625	6.709869	28.48219
114	9.25257	3.0950297	0.9594	6.700771	28.38355
115	9.18189	3.0890332	0.9716	6.711685	28.37887
116	9.02271	3.0858814	0.9716	6.731842	28.47370
117	8.87583	3.0839939	0.9746	6.750075	28.57221
118	8.75846	3.0864116	0.9776	6.762948	28.69168
119	8.67317	3.0905173	0.9776	6.771269	28.80311
120	8.61375	3.0923163	0.9746	6.777545	28.87008
121	8.56467	3.0945393	0.9806	6.782400	28.93314
122	8.52613	3.0990356	0.9747	6.784975	29.01125
123	8.49635	3.1039339	0.9565	6.786317	29.08646
124	8.46913	3.0999516	0.9595	6.791366	29.06762
125	8.44101	3.0913359	0.9534	6.798626	29.00145
126	8.41668	3.0879855	0.9535	6.803060	28.98671
127	8.40479	3.0894031	0.9686	6.803843	29.01120
128	8.40732	3.0967271	0.9777	6.800218	29.08513
129	8.43024	3.1152720	0.9747	6.789074	29.25869
130	8.49910	3.1252622	0.9656	6.776366	29.30520
131	8.54847	3.1163974	0.9625	6.774495	29.17250
132	8.53492	3.0995147	0.9565	6.783709	29.00899
133	8.49193	3.0921886	0.9776	6.792148	28.96845
134	8.45507	3.0949211	0.9747	6.795322	29.02705
135	8.44721	3.1071747	0.9717	6.790717	29.16061
136	8.49247	3.1160717	0.9747	6.781302	29.21542
137	8.54793	3.1129934	0.9596	6.776091	29.13773
138	8.53503	3.0945825	0.9626	6.785918	28.95788
139	8.48535	3.0883468	0.9687	6.794670	28.93408
140	8.44683	3.0928950	0.9778	6.797225	29.01283
141	8.44747	3.1129699	0.9778	6.788063	29.22051
142	8.51005	3.1348764	0.9808	6.770732	29.39577
143	8.55182	3.1245221	0.9626	6.770442	29.25383
144	8.53822	3.1082931	0.9626	6.779363	29.09710
145	8.49479	3.0958295	0.9626	6.790163	29.00381
146	8.44963	3.0925144	0.9657	6.797062	29.00658
147	8.41948	3.0946144	0.9778	6.799720	29.05317
148	8.41012	3.0994238	0.9839	6.798660	29.11081
149	8.41754	3.1047216	0.9748	6.795370	29.15968
150	8.43310	3.1098504	0.9778	6.791189	29.20004
151	8.43880	3.1099488	0.9688	6.790464	29.19634
152	8.42718	3.0990366	0.9627	6.796794	29.09272
153	8.40807	3.0944303	0.9687	6.801169	29.06067
154	8.39269	3.0981277	0.9778	6.801334	29.11175
155	8.39075	3.1052567	0.9748	6.798329	29.18741
156	8.41044	3.1082021	0.9748	6.794641	29.20170
157	8.43563	3.1126684	0.9627	6.789611	29.22720
158	8.43907	3.1076422	0.9567	6.791475	29.17219
159	8.42771	3.1007939	0.9627	6.795934	29.11051
160	8.41431	3.1012733	0.9719	6.797319	29.12655
161	8.40646	3.1049861	0.9870	6.796575	29.17159
162	8.40554	3.1113519	0.9839	6.793797	29.23847
163	8.41442	3.1268719	0.9779	6.785704	29.39236
164	8.44327	3.1416799	0.9689	6.775574	29.52215
165	8.48438	3.1426059	0.9748	6.770286	29.49738
166	8.50773	3.1316437	0.9689	6.772464	29.36419
167	8.50778	3.1278512	0.9748	6.774168	29.32483
168	8.49392	3.1281472	0.9749	6.775680	29.33941
169	8.48411	3.1436744	0.9750	6.769836	29.50870
170	8.49441	3.1621090	0.9658	6.760304	29.69148
171	8.51755	3.1666231	0.9628	6.755544	29.71889
172	8.53368	3.1572315	0.9628	6.757871	29.60788
173	8.53908	3.1513186	0.9811	6.759895	29.54203
174	8.53784	3.1628267	0.9720	6.754864	29.66243
175	8.54356	3.1794798	0.9780	6.746703	29.83042
176	8.55825	3.1888155	0.9781	6.740787	29.91491
177	8.57078	3.1922506	0.9810	6.737778	29.93994
178	8.58077	3.1900886	0.9720	6.737579	29.90905
179	8.59428	3.1856234	0.9811	6.738000	29.85131
180	8.60737	3.1809806	0.9720	6.738549	29.79216
181	8.61602	3.1855921	0.9721	6.735470	29.83265
182	8.62624	3.1978253	0.9721	6.728801	29.95078
183	8.64372	3.2082709	0.9721	6.722093	30.04422
184	8.66093	3.2132026	0.9721	6.717888	30.08070
185	8.66868	3.2141805	0.9691	6.716552	30.08425
186	8.67550	3.2081772	0.9660	6.718437	30.01628
187	8.68861	3.1928273	0.9721	6.723757	29.84633
188	8.69143	3.1920941	0.9782	6.723756	29.83637
189	8.68926	3.2081148	0.9842	6.716865	30.00396
190	8.70352	3.2198261	0.9842	6.709992	30.11309
191	8.71989	3.2214282	0.9813	6.707381	30.11575
192	8.73936	3.2087555	0.9782	6.710759	29.96817
193	8.78062	3.1832563	0.9692	6.717286	29.67021
194	8.78637	3.1698358	0.9692	6.722570	29.52707
195	8.76872	3.1852553	0.9874	6.717785	29.70078
196	8.80164	3.2111147	0.9965	6.702487	29.93991
197	8.83388	3.2172506	0.9904	6.696038	29.97599
198	8.97607	3.2180780	0.9784	6.679252	29.86475
199	9.23246	3.2009595	0.9572	6.657196	29.47623
200	9.38477	3.1759480	0.9663	6.650461	29.09736
201	9.42235	3.1577979	0.9633	6.653925	28.88320
202	9.38505	3.1683674	0.9724	6.653689	29.02033
203	9.33412	3.1971092	0.9877	6.647178	29.35340
204	9.32982	3.2058425	0.9756	6.643907	29.44567
205	9.38075	3.2091473	0.9816	6.636653	29.43735
206	9.49895	3.1894144	0.9695	6.631575	29.14090
207	9.56444	3.1707760	0.9695	6.632015	28.89982
208	9.57713	3.1688177	0.9726	6.631392	28.86988
209	9.57010	3.1955278	0.9817	6.620829	29.14488
210	9.53558	3.2048944	0.9877	6.620780	29.26752
211	9.50287	3.2076768	0.9787	6.623326	29.32235
212	9.59782	3.1959813	0.9757	6.617471	29.12697
213	9.65726	3.1874937	0.9817	6.614287	28.99344
214	9.68337	3.1893814	0.9758	6.610507	28.99139
215	9.68904	3.1994310	0.9696	6.605609	29.08788
216	9.70455	3.2047433	0.9727	6.601599	29.12876
217	9.72330	3.2001894	0.9667	6.601391	29.06784
218	9.71924	3.1915056	0.9729	6.605520	28.98386
219	9.68215	3.1938237	0.9728	6.608767	29.03705
220	9.64721	3.2074636	0.9850	6.606970	29.20262
221	9.64837	3.2164694	0.9881	6.603021	29.29241
222	9.66253	3.2192987	0.9851	6.600215	29.30938
223	9.68915	3.2171793	0.9851	6.598092	29.26637
224	9.74339	3.2092991	0.9821	6.595266	29.14313
225	9.77926	3.2035168	0.9761	6.593631	29.05611
226	9.80267	3.2043129	0.9822	6.590640	29.04523
227	9.83005	3.2104626	0.9732	6.584954	29.08482
228	9.86807	3.2157941	0.9732	6.578418	29.10758
229	9.91014	3.2180059	0.9732	6.572742	29.09581
230	9.93945	3.2175756	0.9823	6.569615	29.06791
231	9.95412	3.2160674	0.9823	6.568591	29.04105
232	9.95915	3.2149645	0.9793	6.568483	29.02599
233	9.95865	3.2166530	0.9733	6.567835	29.04326
234	9.95837	3.2204302	0.9702	6.566292	29.08123
235	9.96274	3.2219702	0.9735	6.565159	29.09310
236	9.97024	3.2172948	0.9795	6.566262	29.04036
237	9.97276	3.2125723	0.9917	6.567945	28.99117
238	9.96514	3.2193517	0.9947	6.565979	29.06499
239	9.96106	3.2289380	0.9947	6.562445	29.16408
240	9.96772	3.2310850	0.9887	6.560801	29.18016
241	9.97836	3.2276586	0.9797	6.561031	29.13735
242	10.02768	3.2175435	0.9676	6.559689	28.99676
243	10.06157	3.2065381	0.9737	6.560440	28.86002
244	10.05859	3.2006461	0.9768	6.563219	28.80373
245	10.03334	3.2077958	0.9829	6.563100	28.89506
246	10.02919	3.2219071	0.9920	6.557707	29.03906
247	10.04024	3.2270777	0.9860	6.554318	29.08175
248	10.06965	3.2292302	0.9770	6.550125	29.07959
249	10.17872	3.2203655	0.9709	6.541557	28.90416
250	10.25193	3.2069034	0.9588	6.538884	28.71255
251	10.26276	3.1949115	0.9709	6.542591	28.58528
252	10.25244	3.1914441	0.9772	6.545175	28.55908
253	10.19765	3.2043399	0.9922	6.546034	28.73008
254	10.16353	3.2175421	0.9924	6.544425	28.88822
255	10.14895	3.2261719	0.9955	6.542499	28.98561
256	10.20029	3.2267329	0.9894	6.536519	28.95018
257	10.29726	3.2122014	0.9864	6.531632	28.72916
258	10.35678	3.2004564	0.9834	6.529769	28.56620
259	10.35672	3.1915922	0.9773	6.533396	28.47875
260	10.33348	3.1972543	0.9896	6.533690	28.55286
261	10.31833	3.2136089	0.9836	6.528698	28.72644
262	10.27484	3.2199344	0.9866	6.530972	28.82346
263	10.25035	3.2227965	0.9746	6.532537	28.87127
264	10.30161	3.2116782	0.9717	6.531359	28.72056
265	10.32291	3.2003075	0.9717	6.533627	28.59134
266	10.31161	3.1929285	0.9717	6.537915	28.52730
267	10.28992	3.1970122	0.9839	6.538678	28.58470
268	10.28325	3.2106758	0.9961	6.533826	28.72513
269	10.25882	3.2167434	0.9991	6.534074	28.80456
270	10.22002	3.2212255	0.9931	6.536577	28.87981
271	10.27343	3.2215304	0.9901	6.530475	28.84039
272	10.33076	3.2139514	0.9810	6.527167	28.72000
273	10.34388	3.2047366	0.9751	6.529465	28.61860
274	10.32749	3.1977144	0.9721	6.534174	28.56212
275	10.30641	3.1958869	0.9812	6.537288	28.56061
276	10.28867	3.2063864	0.9873	6.534976	28.67841
277	10.29212	3.2156962	1.0026	6.530776	28.76781
278	10.28489	3.2216862	0.9966	6.529130	28.83284
279	10.32132	3.2207942	0.9814	6.525424	28.79514
280	10.37754	3.2081283	0.9785	6.524314	28.62562
281	10.39022	3.1981428	0.9846	6.526966	28.51714
282	10.37924	3.1939780	0.9937	6.529896	28.48465
283	10.37556	3.2048546	0.9998	6.525871	28.59485
284	10.37879	3.2152031	0.9999	6.521289	28.69447
285	10.36532	3.2215045	0.9909	6.520222	28.76735
286	10.40421	3.2182438	0.9758	6.517212	28.70445
287	10.43985	3.2055571	0.9638	6.518396	28.55135
288	10.44098	3.1975889	0.9577	6.521509	28.47198
289	10.42506	3.1925980	0.9699	6.525322	28.43525
290	10.40999	3.1972535	0.9820	6.525115	28.49290
291	10.40591	3.2089249	0.9941	6.520818	28.61117
292	10.39203	3.2165239	1.0033	6.519272	28.69707
293	10.38003	3.2229136	1.0004	6.518006	28.76963
294	10.42749	3.2177200	0.9974	6.514829	28.68093
295	10.47331	3.2051584	0.9854	6.514821	28.52122
296	10.49363	3.1985148	0.9854	6.515247	28.43998
297	10.48812	3.1943933	0.9885	6.517534	28.40374
298	10.47552	3.2009154	0.9946	6.516296	28.47772
299	10.47672	3.2111284	1.0038	6.512019	28.57731
300	10.47110	3.2163424	0.9917	6.510529	28.63307
301	10.47655	3.2160307	0.9857	6.510048	28.62572
302	10.50760	3.2046105	0.9706	6.511216	28.48903
303	10.50834	3.1954870	0.9647	6.514830	28.39876
304	10.49068	3.1907086	0.9799	6.518742	28.36552
305	10.48443	3.1972527	0.9830	6.516786	28.43474
306	10.48602	3.2080961	0.9921	6.512210	28.54018
307	10.46463	3.2148782	0.9953	6.511844	28.62372
308	10.47155	3.2166788	0.9953	6.510342	28.63602
309	10.50447	3.2068136	0.9923	6.510672	28.51313
310	10.51328	3.1986576	1.0014	6.512994	28.42606
311	10.50391	3.1961584	0.9925	6.515054	28.40880
312	10.48994	3.2010086	0.9834	6.514648	28.46739
313	10.48370	3.2074860	0.9865	6.512717	28.53600
314	10.47229	3.2090487	0.9865	6.513356	28.56031
315	10.45323	3.2039702	0.9927	6.517546	28.52523
316	10.43809	3.1998150	0.9927	6.520927	28.49615
317	10.42460	3.2024400	0.9928	6.521368	28.53257
318	10.41922	3.2091987	0.9868	6.519219	28.60342
319	10.42630	3.2108051	0.9899	6.517775	28.61369
320	10.42897	3.2045491	0.9900	6.520022	28.54994
321	10.42228	3.1972222	0.9780	6.523751	28.48298
322	10.41072	3.1975892	0.9900	6.524896	28.49563
323	10.40766	3.2044311	0.9902	6.522452	28.56548
324	10.41639	3.2087069	0.9963	6.519736	28.60079
325	10.42336	3.2064783	0.9964	6.519864	28.57335
326	10.43106	3.2007355	0.9934	6.521339	28.51072
327	10.43770	3.1989009	0.9904	6.521344	28.48746
328	10.44382	3.2014942	0.9904	6.519604	28.50821
329	10.45221	3.2037835	0.9906	6.517736	28.52419
330	10.46197	3.2027631	0.9998	6.517061	28.50651
331	10.46826	3.1999702	0.9786	6.517491	28.47410
332	10.46962	3.1988694	0.9908	6.517786	28.46220
333	10.46786	3.2005797	0.9909	6.517288	28.48040
334	10.46815	3.2020725	0.9939	6.516650	28.49488
335	10.47144	3.2013447	1.0001	6.516578	28.48514
336	10.47473	3.2002437	0.9941	6.516657	28.47173
337	10.47632	3.2010709	0.9850	6.516144	28.47864
338	10.47768	3.2014939	0.9882	6.515820	28.48173
339	10.47989	3.1988072	1.0034	6.516663	28.45356
340	10.47961	3.1963700	1.0065	6.517684	28.42981
341	10.47445	3.1991243	1.0005	6.517143	28.46094
342	10.47127	3.2055568	0.9944	6.514887	28.52673
343	10.47314	3.2079157	0.9764	6.513721	28.54849
344	10.47927	3.1992362	0.9674	6.516558	28.45829
345	10.49272	3.1876403	0.9765	6.519758	28.33377
346	10.48256	3.1834187	0.9888	6.522609	28.30015
347	10.41440	3.1922005	1.0100	6.526679	28.43964
348	10.35372	3.2030815	1.0222	6.529040	28.59450
349	10.31336	3.2118338	1.0072	6.529981	28.71280
350	10.35734	3.2025340	0.9860	6.528858	28.58626
351	10.41208	3.1888087	0.9890	6.528320	28.40804
352	10.41367	3.1811481	0.9952	6.531262	28.33134
353	10.34450	3.1861206	1.0014	6.537004	28.43429
354	10.28562	3.1982620	1.0074	6.538648	28.60043
355	10.24567	3.2051919	1.0015	6.540290	28.70053
356	10.23997	3.2062624	0.9834	6.540490	28.71565
357	10.28969	3.1948180	0.9743	6.539603	28.56318
358	10.31031	3.1875180	0.9866	6.540276	28.47485
359	10.29443	3.1822104	0.9866	6.544237	28.43483
360	10.27230	3.1843892	0.9958	6.545836	28.47369
361	10.26796	3.1944266	0.9958	6.542206	28.57639
362	10.25566	3.2004015	0.9960	6.541136	28.64521
363	10.24922	3.2008867	0.9839	6.541659	28.65509
364	10.28913	3.1902572	0.9930	6.541536	28.51852
365	10.31042	3.1840288	0.9962	6.541693	28.44029
366	10.31194	3.1828433	1.0023	6.542006	28.42738
367	10.30952	3.1911640	1.0085	6.538873	28.51149
368	10.30579	3.1960672	0.9994	6.537284	28.56288
369	10.29308	3.1958249	0.9965	6.538810	28.57047
370	10.30889	3.1884309	1.0026	6.540062	28.48497
371	10.31098	3.1851213	0.9996	6.541182	28.45064
372	10.31031	3.1856987	0.9967	6.541022	28.45687
373	10.31268	3.1880645	0.9908	6.539786	28.47839
374	10.31980	3.1872757	0.9817	6.539308	28.46502
375	10.32336	3.1829673	0.9818	6.540671	28.41969
376	10.31200	3.1815090	0.9940	6.542546	28.41416
377	10.29234	3.1853326	1.0001	6.543193	28.46731
378	10.28404	3.1908909	1.0032	6.541848	28.52877
379	10.28438	3.1937242	0.9973	6.540648	28.55653
380	10.29511	3.1887043	0.9943	6.541499	28.49848
381	10.31211	3.1819372	0.9944	6.542358	28.41830
382	10.32737	3.1794800	0.9945	6.541646	28.38212
383	10.33936	3.1829671	0.9855	6.538871	28.40719
384	10.34807	3.1868842	0.9916	6.536291	28.43905
385	10.35231	3.1872443	1.0007	6.535668	28.43928
386	10.35021	3.1835442	0.9978	6.537415	28.40440
387	10.34529	3.1807827	1.0100	6.539097	28.38099
388	10.33845	3.1831161	1.0071	6.538913	28.40936
389	10.33088	3.1882195	1.0042	6.537677	28.46567
390	10.32132	3.1899214	0.9981	6.538054	28.48996
391	10.31991	3.1850592	0.9801	6.540203	28.44304
392	10.32703	3.1773027	0.9831	6.542575	28.36090
393	10.32850	3.1720077	0.9923	6.544576	28.30749
394	10.31443	3.1760315	1.0045	6.544516	28.35817
395	10.29573	3.1857299	1.0077	6.542649	28.46858
396	10.27563	3.1942712	1.0077	6.541407	28.56881
397	10.29652	3.1886112	0.9987	6.541379	28.49645
398	10.33444	3.1763599	0.9837	6.542127	28.34582
399	10.34286	3.1695348	0.9867	6.543969	28.27193
400	10.29342	3.1728882	0.9867	6.548172	28.34352
401	10.23129	3.1824842	0.9990	6.551240	28.48699
402	10.18734	3.1864575	1.0053	6.554561	28.56089
403	10.16206	3.1867620	1.0082	6.557288	28.58381
404	10.17715	3.1858801	0.9963	6.555949	28.56319
405	10.19100	3.1843218	0.9933	6.555028	28.53684
406	10.19556	3.1786935	0.9966	6.556832	28.47748
407	10.18925	3.1725236	0.9904	6.560088	28.42131
408	10.17371	3.1697472	0.9967	6.562991	28.40597
409	10.15210	3.1748240	0.9998	6.563341	28.47324
410	10.14361	3.1819700	1.0059	6.561350	28.55081
411	10.13624	3.1865511	1.0060	6.560290	28.60208
412	10.16127	3.1833662	0.9969	6.558778	28.55075
413	10.19083	3.1740982	0.9939	6.559260	28.43567
414	10.20075	3.1684147	0.9911	6.560481	28.37162
415	10.20063	3.1666368	1.0003	6.561226	28.35410
416	10.20153	3.1748235	1.0064	6.557752	28.43446
417	10.20035	3.1819694	1.0126	6.554942	28.50618
418	10.20120	3.1857681	1.0065	6.553283	28.54315
419	10.22312	3.1788731	0.9945	6.553647	28.45766
420	10.23569	3.1699262	0.9855	6.555907	28.35928
421	10.22870	3.1642892	0.9826	6.559016	28.30898
422	10.21230	3.1649830	0.9857	6.560587	28.32863
423	10.19235	3.1729451	0.9948	6.559564	28.42306
424	10.17293	3.1790783	0.9980	6.559231	28.49907
425	10.15733	3.1813927	0.9981	6.560038	28.53428
426	10.17743	3.1724059	1.0042	6.561474	28.42940
427	10.19089	3.1659741	1.0073	6.562603	28.35515
428	10.19061	3.1657636	1.0164	6.562721	28.35328
429	10.18830	3.1733728	1.0197	6.559846	28.43046
430	10.18216	3.1784517	1.0137	6.558446	28.48560
431	10.17647	3.1764236	1.0016	6.559925	28.46997
432	10.18514	3.1677520	0.9987	6.562520	28.37725
433	10.18295	3.1637447	1.0018	6.564421	28.33928
434	10.17574	3.1646799	1.0019	6.564852	28.35417
435	10.17293	3.1708317	1.0019	6.562633	28.41733
436	10.17580	3.1745385	1.0051	6.560779	28.45181
437	10.17225	3.1743650	1.0052	6.561252	28.45288
438	10.17388	3.1688115	0.9901	6.563358	28.39657
439	10.17546	3.1644384	0.9811	6.564983	28.35201
440	10.17720	3.1619988	0.9843	6.565792	28.32648
441	10.17698	3.1608845	0.9995	6.566277	28.31561
442	10.17461	3.1646613	1.0238	6.564987	28.35486
443	10.17658	3.1705899	1.0178	6.562319	28.41206
444	10.17923	3.1763057	1.0119	6.559662	28.46663
445	10.19680	3.1752452	1.0028	6.558113	28.44235
446	10.22588	3.1646794	0.9879	6.559174	28.31503
447	10.23941	3.1568243	0.9970	6.560873	28.22682
448	10.23749	3.1551354	1.0093	6.561785	28.21161
449	10.17720	3.1630823	1.0184	6.565345	28.33720
450	10.11268	3.1733116	1.0154	6.568430	28.48919
451	10.08549	3.1779999	1.0094	6.569568	28.55717
452	10.12612	3.1676349	0.9884	6.569255	28.42232
453	10.16409	3.1578026	0.9763	6.569011	28.29515
454	10.14535	3.1526501	0.9885	6.573267	28.25870
455	10.01646	3.1575814	1.0037	6.585885	28.40845
456	9.91769	3.1658902	1.0129	6.593672	28.56905
457	9.87650	3.1693289	1.0161	6.596927	28.63600
458	9.88958	3.1671851	1.0040	6.596335	28.60423
459	9.94359	3.1601194	1.0012	6.593130	28.49105
460	9.96671	3.1571859	1.0102	6.591719	28.44361
461	9.95815	3.1564374	1.0103	6.593008	28.44289
462	9.94119	3.1590797	1.0135	6.593839	28.48258
463	9.93598	3.1614318	1.0044	6.593450	28.51013
464	9.93716	3.1621251	1.0047	6.593026	28.51612
465	9.93330	3.1609799	1.0017	6.593945	28.50775
466	9.92429	3.1589313	1.0048	6.595828	28.49442
467	9.91126	3.1579104	1.0079	6.597742	28.49451
468	9.89852	3.1583004	1.0050	6.599034	28.50846
469	9.89114	3.1597424	1.0020	6.599273	28.52868
470	9.88946	3.1597424	0.9990	6.599464	28.53000
471	9.88890	3.1570691	1.0053	6.600648	28.50375
472	9.88421	3.1546689	1.0146	6.602190	28.48349
473	9.87231	3.1562588	1.0144	6.602883	28.50876
474	9.86382	3.1609806	1.0085	6.601873	28.56264
475	9.86276	3.1632651	0.9996	6.601036	28.58631
476	9.88220	3.1588699	1.0057	6.600659	28.52703
477	9.91121	3.1522938	1.0027	6.600098	28.43853
478	9.93106	3.1484854	1.0120	6.599422	28.38494
479	9.92547	3.1531471	1.0120	6.598112	28.43581
480	9.91680	3.1590799	1.0060	6.596621	28.50181
481	9.91076	3.1621501	1.0061	6.596026	28.53721
482	9.93386	3.1560169	1.0002	6.595955	28.45782
483	9.95641	3.1500181	1.0003	6.595885	28.38031
484	9.95557	3.1480834	1.0126	6.596789	28.36170
485	9.93906	3.1520833	1.0157	6.597004	28.41451
486	9.92480	3.1561346	1.0156	6.596940	28.46613
487	9.90053	3.1570381	1.0188	6.599333	28.49427
488	9.88991	3.1544153	1.0159	6.601644	28.47647
489	9.89343	3.1520281	1.0161	6.602242	28.44987
490	9.89662	3.1516942	1.0101	6.602017	28.44403
491	9.90288	3.1516076	1.0041	6.601338	28.43824
492	9.90830	3.1504946	1.0071	6.601184	28.42287
493	9.91149	3.1491593	0.9983	6.601378	28.40705
494	9.91260	3.1489059	0.9984	6.601356	28.40364
495	9.91277	3.1500742	1.0045	6.600848	28.41516
496	9.91361	3.1514281	1.0046	6.600186	28.42800
497	9.91713	3.1461249	1.0289	6.602002	28.37234
498	9.87745	3.1070680	1.1410	6.622922	28.01401
499	9.54572	3.0651888	1.3136	6.679232	27.85244
500	9.14509	3.0589303	1.5045	6.729161	28.10225
501	8.84437	3.0575335	1.6954	6.765553	28.32627
502	8.63880	3.0563315	1.8954	6.790704	28.47856
503	8.50039	3.0574759	2.0892	6.806830	28.60203
504	8.41109	3.0579230	2.2861	6.817394	28.67907
505	8.35022	3.0571046	2.4982	6.825119	28.72006
506	8.30786	3.0577714	2.6830	6.829940	28.76149
507	8.28232	3.0571910	2.8767	6.833298	28.77625
508	8.26500	3.0566411	3.0798	6.835650	28.78462
509	8.24984	3.0565191	3.2858	6.837546	28.79568
510	8.23537	3.0542400	3.4888	6.840347	28.78372
511	8.22487	3.0528839	3.7038	6.842245	28.77810
512	8.21978	3.0520105	3.9068	6.843267	28.77309
513	8.21845	3.0502271	4.1158	6.844251	28.75552
514	8.21555	3.0507646	4.3219	6.844359	28.76340
515	8.21518	3.0503799	4.5279	6.844585	28.75961
516	8.21507	3.0519802	4.7307	6.843868	28.77629
517	8.21379	3.0519803	4.9338	6.844027	28.77725
518	8.20645	3.0522431	5.1761	6.844801	28.78590
519	8.19655	3.0530801	5.3730	6.845622	28.80265
520	8.18660	3.0533430	5.5820	6.846714	28.81347
521	8.17638	3.0523291	5.7819	6.848424	28.81119
522	8.16627	3.0524270	5.9848	6.849611	28.82042
523	8.15954	3.0514315	6.1879	6.850891	28.81548
524	8.15499	3.0506254	6.4121	6.851818	28.81071
525	8.15200	3.0505644	6.6180	6.852214	28.81245
526	8.14981	3.0511447	6.8271	6.852217	28.82021
527	8.14954	3.0508516	7.0452	6.852389	28.81728
528	8.15194	3.0514807	7.2663	6.851811	28.82178
529	8.15783	3.0519816	7.4754	6.850869	28.82209
530	8.15954	3.0517800	7.6663	6.850758	28.81851
531	8.16093	3.0523970	7.8723	6.850309	28.82372
532	8.16130	3.0518351	8.0903	6.850526	28.81746
533	8.16082	3.0515115	8.3054	6.850737	28.81439
534	8.15783	3.0514932	8.4932	6.851113	28.81657
535	8.15360	3.0497711	8.7114	6.852423	28.80198
536	8.15023	3.0499605	8.9234	6.852749	28.80663
537	8.15109	3.0496491	9.1293	6.852792	28.80260
538	8.15168	3.0490324	9.3536	6.853008	28.79559
539	8.15360	3.0492218	9.5777	6.852691	28.79589
540	8.16504	3.0512614	9.7746	6.850366	28.80770
541	8.17981	3.0541080	9.9714	6.847268	28.82519
542	8.18746	3.0551345	10.1866	6.845871	28.82953
543	8.18713	3.0557274	10.3925	6.845642	28.83589
544	8.18360	3.0557152	10.5986	6.846080	28.83857
545	8.18077	3.0564731	10.8077	6.846079	28.84872
546	8.17734	3.0568888	11.0196	6.846308	28.85577
547	8.16793	3.0560945	11.2225	6.847819	28.85514
548	8.15136	3.0537422	11.4226	6.850918	28.84413
549	8.12854	3.0510608	11.6286	6.854930	28.83480
550	8.10013	3.0484597	11.8376	6.859592	28.83090
551	8.06773	3.0463235	12.0435	6.864530	28.83511
552	8.03713	3.0437728	12.2556	6.869448	28.83352
553	8.01011	3.0434070	12.4494	6.872921	28.85185
554	7.98668	3.0432852	12.6432	6.875844	28.86980
555	7.96539	3.0438408	12.8523	6.878193	28.89310
556	7.94736	3.0447747	13.0644	6.879968	28.91770
557	7.93348	3.0457758	13.2734	6.881204	28.93959
558	7.92327	3.0470639	13.4733	6.881856	28.96148
559	7.91742	3.0485170	13.6794	6.881898	28.98149
560	7.91594	3.0512346	13.8731	6.880817	29.01119
561	7.91705	3.0534703	14.0763	6.879642	29.03366
562	7.91849	3.0560123	14.2793	6.878286	29.05909
563	7.92003	3.0574119	14.4822	6.877450	29.07243
564	7.92173	3.0591114	14.6730	6.876454	29.08879
565	7.92736	3.0634471	14.8820	6.873751	29.12957
566	7.93736	3.0690766	15.0820	6.869917	29.18030
567	7.94736	3.0739872	15.2940	6.866420	29.22346
568	7.95656	3.0777977	15.5030	6.863534	29.25571
569	7.96550	3.0807150	15.7029	6.861097	29.27880
570	7.97204	3.0826461	15.9089	6.859409	29.29352
571	7.97625	3.0840810	16.1058	6.858237	29.30498
572	7.97901	3.0849642	16.3087	6.857495	29.31185
573	7.98130	3.0856327	16.5270	6.856912	29.31687
574	7.98301	3.0864241	16.7238	6.856342	29.32367
575	7.98801	3.0888597	16.9479	6.854610	29.34496
576	7.99419	3.0910567	17.1419	6.852846	29.36276
577	7.99924	3.0928430	17.3478	6.851410	29.37719
578	8.00281	3.0955876	17.5720	6.849710	29.40292
579	8.00745	3.0995496	17.8142	6.847319	29.44052
580	8.01240	3.1010489	18.0082	6.846030	29.45202
581	8.01618	3.1034152	18.2324	6.844482	29.47358
582	8.01837	3.1060589	18.4384	6.842998	29.49941
583	8.01522	3.1087158	18.6443	6.842151	29.52987
584	8.00601	3.1105799	18.8381	6.842402	29.55714
585	7.99349	3.1112015	19.0502	6.843626	29.57415
586	7.98008	3.1118785	19.2563	6.844933	29.59252
587	7.96709	3.1123895	19.4653	6.846266	29.60878
588	7.95539	3.1129127	19.6532	6.847438	29.62411
589	7.94422	3.1131775	19.8682	6.848666	29.63626
590	7.93236	3.1135778	20.0712	6.849914	29.65044
591	7.92168	3.1143042	20.2620	6.850869	29.66706
592	7.91227	3.1152831	20.4710	6.851553	29.68527
593	7.90356	3.1162313	20.6679	6.852166	29.70258
594	7.89538	3.1170442	20.8771	6.852779	29.71801
595	7.88826	3.1176539	21.0860	6.853358	29.73040
596	7.88199	3.1180974	21.2829	6.853911	29.74032
597	7.87414	3.1179867	21.4799	6.854914	29.74575
598	7.86341	3.1177713	21.6919	6.856313	29.75252
599	7.85200	3.1177099	21.9010	6.857724	29.76150
600	7.84219	3.1182335	22.1068	6.858669	29.77530
601	7.83524	3.1191020	22.3038	6.859106	29.79031
602	7.83201	3.1201738	22.5098	6.858999	29.80430
603	7.83142	3.1210917	22.7069	6.858645	29.81441
604	7.83206	3.1225210	22.9158	6.857904	29.82888
605	7.83291	3.1237041	23.1157	6.857252	29.84057
606	7.83211	3.1255469	23.3247	6.856491	29.86062
607	7.83079	3.1265024	23.5246	6.856208	29.87177
608	7.82909	3.1277169	23.7275	6.855849	29.88596
609	7.82771	3.1283952	23.9184	6.855701	29.89423
610	7.82692	3.1287837	24.1274	6.855620	29.89893
611	7.82633	3.1291723	24.3274	6.855512	29.90344
612	7.82564	3.1294128	24.5303	6.855487	29.90649
613	7.82511	3.1297397	24.7333	6.855402	29.91031
614	7.82405	3.1299741	24.9393	6.855424	29.91361
615	7.82225	3.1304923	25.1515	6.855403	29.92054
616	7.81917	3.1309302	25.3392	6.855572	29.92772
617	7.81520	3.1310475	25.5422	6.856001	29.93228
618	7.81133	3.1322874	25.7391	6.855891	29.94862
619	7.81069	3.1339964	25.9361	6.855172	29.96716
620	7.81207	3.1359649	26.1300	6.854089	29.98671
621	7.81509	3.1379647	26.3421	6.852793	30.00517
622	7.81928	3.1404713	26.5419	6.851121	30.02799
623	7.82315	3.1433987	26.7539	6.849291	30.05553
624	7.82342	3.1457648	26.9357	6.848157	30.08025
625	7.81923	3.1478598	27.1356	6.847685	30.10594
626	7.80990	3.1493557	27.3325	6.848109	30.12973
627	7.79336	3.1494425	27.5415	6.850059	30.14483
628	7.76625	3.1475886	27.7566	6.854191	30.14853
629	7.72772	3.1425909	28.0171	6.861180	30.12873
630	7.67375	3.1409487	28.2141	6.868465	30.15791
631	7.62418	3.1389920	28.4109	6.875379	30.17998
632	7.58273	3.1376097	28.6200	6.881051	30.20115
633	7.54570	3.1361782	28.8200	6.886218	30.21799
634	7.51569	3.1347778	29.0198	6.890524	30.22906
635	7.49208	3.1338587	29.2229	6.893831	30.23973
636	7.46968	3.1326004	29.4138	6.897153	30.24572
637	7.44808	3.1307564	29.6227	6.900661	30.24475
638	7.42828	3.1295665	29.8318	6.903641	30.24920
639	7.41007	3.1291782	30.0378	6.906047	30.26084
640	7.39422	3.1287345	30.2407	6.908193	30.26984
641	7.38205	3.1280194	30.4557	6.910022	30.27271
642	7.37267	3.1277668	30.6707	6.911291	30.27811
643	7.36616	3.1279272	30.8677	6.912010	30.28542
644	7.35972	3.1276006	31.0769	6.912957	30.28747
645	7.35400	3.1280508	31.2677	6.913441	30.29720
646	7.34902	3.1275823	31.4644	6.914277	30.29645
647	7.34405	3.1276626	31.6736	6.914849	30.30157
648	7.33959	3.1276011	31.8795	6.915426	30.30471
649	7.33383	3.1276628	32.0946	6.916104	30.31032
650	7.32770	3.1281439	32.2914	6.916624	30.32076
651	7.32142	3.1283783	32.4884	6.917282	30.32868
652	7.31587	3.1282859	32.6944	6.918008	30.33246
653	7.31142	3.1280826	32.9185	6.918653	30.33408
654	7.30875	3.1286746	33.1186	6.918698	30.34268
655	7.30592	3.1281999	33.3214	6.919275	30.33998
656	7.30267	3.1285823	33.5365	6.919492	30.34683
657	7.30053	3.1286502	33.7214	6.919725	30.34936
658	7.29901	3.1284344	33.9213	6.920018	30.34828
659	7.29823	3.1286441	34.1243	6.920017	30.35113
660	7.29754	3.1282866	34.3333	6.920276	30.34780
661	7.29718	3.1282743	34.5514	6.920331	30.34789
662	7.29744	3.1286443	34.7574	6.920125	30.35154
663	7.29660	3.1284656	34.9695	6.920318	30.35026
664	7.29430	3.1286198	35.1815	6.920529	30.35384
665	7.29137	3.1291810	35.3905	6.920621	30.36234
666	7.28917	3.1296559	35.5935	6.920664	30.36928
667	7.28656	3.1297485	35.8024	6.920943	30.37247
668	7.28368	3.1300015	36.0114	6.921177	30.37762
669	7.28106	3.1301311	36.2175	6.921438	30.38122
670	7.27866	3.1302545	36.4204	6.921677	30.38456
671	7.27604	3.1303409	36.6295	6.921958	30.38769
672	7.27369	3.1305939	36.8263	6.922128	30.39239
673	7.27170	3.1304028	37.0171	6.922466	30.39200
674	7.26929	3.1303412	37.2264	6.922794	30.39336
675	7.26720	3.1304399	37.4140	6.923006	30.39617
676	7.26495	3.1299836	37.6231	6.923504	30.39315
677	7.26312	3.1302551	37.8381	6.923601	30.39758
678	7.26270	3.1303723	38.0261	6.923600	30.39912
679	7.26155	3.1299037	38.2532	6.923970	30.39500
680	7.26014	3.1300765	38.4985	6.924064	30.39799
681	7.25821	3.1310263	38.6803	6.923847	30.40981
682	7.25523	3.1307304	38.8894	6.924357	30.40916
683	7.25125	3.1308785	39.1045	6.924775	30.41414
684	7.24822	3.1309649	39.3104	6.925108	30.41765
685	7.24592	3.1309958	39.5285	6.925379	30.41990
686	7.24482	3.1314153	39.7377	6.925315	30.42529
687	7.24472	3.1315388	39.9374	6.925272	30.42661
688	7.24446	3.1316252	40.1344	6.925266	30.42769
689	7.24440	3.1318596	40.3222	6.925163	30.43017
690	7.24467	3.1317918	40.5310	6.925168	30.42912
691	7.24493	3.1318042	40.7401	6.925134	30.42893
692	7.24540	3.1319523	40.9401	6.925009	30.43001
693	7.24555	3.1318043	41.1522	6.925066	30.42819
694	7.24503	3.1318229	41.3703	6.925125	30.42875
695	7.24472	3.1321314	41.5641	6.925019	30.43226
696	7.24388	3.1319218	41.7702	6.925226	30.43065
697	7.24252	3.1322796	41.9701	6.925223	30.43560
698	7.24116	3.1323907	42.1639	6.925340	30.43790
699	7.24007	3.1322797	42.3639	6.925531	30.43759
700	7.23866	3.1323415	42.5759	6.925678	30.43940
701	7.23782	3.1323107	42.7819	6.925799	30.43971
702	7.23714	3.1323602	42.9850	6.925862	30.44075
703	7.23636	3.1323664	43.1849	6.925959	30.44142
704	7.23557	3.1323665	43.3787	6.926059	30.44202
705	7.23458	3.1322493	43.5817	6.926241	30.44155
706	7.23380	3.1324838	43.7725	6.926227	30.44467
707	7.23212	3.1323420	43.9633	6.926503	30.44453
708	7.22998	3.1325148	44.1754	6.926686	30.44818
709	7.22800	3.1328603	44.3845	6.926766	30.45355
710	7.22664	3.1331751	44.5843	6.926784	30.45804
711	7.22502	3.1333540	44.7934	6.926900	30.46130
712	7.22376	3.1337120	44.9872	6.926884	30.46617
713	7.22282	3.1339650	45.1902	6.926881	30.46963
714	7.22204	3.1341872	45.3961	6.926873	30.47262
715	7.22136	3.1344279	45.5992	6.926844	30.47571
716	7.22126	3.1345760	45.8113	6.926789	30.47730
717	7.22110	3.1349402	46.0020	6.926637	30.48127
718	7.22105	3.1350821	46.2051	6.926578	30.48276
719	7.22047	3.1352303	46.4019	6.926581	30.48477
720	7.21932	3.1357673	46.6018	6.926466	30.49147
721	7.21812	3.1361685	46.7958	6.926423	30.49676
722	7.21593	3.1365450	46.9957	6.926513	30.50265
723	7.21248	3.1369587	47.1956	6.926738	30.51005
724	7.20935	3.1372859	47.3864	6.926966	30.51626
725	7.20616	3.1376440	47.5956	6.927187	30.52283
726	7.20366	3.1380329	47.7834	6.927308	30.52914
727	7.20110	3.1382738	47.9802	6.927508	30.53391
728	7.19833	3.1385146	48.2043	6.927734	30.53884
729	7.19567	3.1390024	48.4043	6.927828	30.54636
730	7.19316	3.1390828	48.6041	6.928099	30.54935
731	7.19066	3.1394101	48.8044	6.928250	30.55500
732	7.18878	3.1396201	49.0071	6.928382	30.55883
733	7.18763	3.1396016	49.2101	6.928536	30.55956
734	7.18669	3.1397684	49.4008	6.928573	30.56210
735	7.18637	3.1400031	49.6009	6.928502	30.56481
736	7.18643	3.1401575	49.8008	6.928425	30.56634
737	7.18674	3.1404540	50.0127	6.928248	30.56916
738	7.18758	3.1406331	50.2096	6.928063	30.57026
739	7.18815	3.1407258	50.4097	6.927952	30.57066
740	7.18846	3.1407814	50.6155	6.927891	30.57089
741	7.18862	3.1408617	50.8154	6.927837	30.57153
742	7.18851	3.1408741	51.0094	6.927848	30.57167
743	7.18805	3.1409298	51.2123	6.927883	30.57259
744	7.18674	3.1409607	51.4092	6.928031	30.57399
745	7.18559	3.1408929	51.6091	6.928208	30.57418
746	7.18382	3.1410535	51.8093	6.928351	30.57739
747	7.18199	3.1413191	52.0151	6.928449	30.58178
748	7.17990	3.1417083	52.2210	6.928520	30.58773
749	7.17750	3.1420974	52.4211	6.928629	30.59395
750	7.17552	3.1425360	52.6300	6.928663	30.60034
751	7.17375	3.1429376	52.8210	6.928689	30.60615
752	7.17176	3.1433824	53.0239	6.928720	30.61261
753	7.16941	3.1440743	53.2177	6.928675	30.62206
754	7.16660	3.1447787	53.4267	6.928682	30.63205
755	7.16180	3.1458044	53.6328	6.928775	30.64727
756	7.15476	3.1468859	53.8357	6.929115	30.66509
757	7.14699	3.1478748	54.0416	6.929588	30.68256
758	7.13990	3.1483818	54.2445	6.930211	30.69424
759	7.13359	3.1488949	54.4354	6.930736	30.70530
760	7.12754	3.1491917	54.6384	6.931334	30.71379
761	7.12160	3.1494638	54.8443	6.931931	30.72192
762	7.11649	3.1497297	55.0443	6.932429	30.72924
763	7.11227	3.1498659	55.2502	6.932882	30.73438
764	7.10868	3.1500020	55.4532	6.933259	30.73896
765	7.10524	3.1501813	55.6532	6.933596	30.74386
766	7.10165	3.1502123	55.8532	6.934023	30.74731
767	7.09842	3.1503113	56.0561	6.934374	30.75117
768	7.09618	3.1505093	56.2560	6.934555	30.75521
769	7.09461	3.1506886	56.4500	6.934662	30.75845
770	7.09310	3.1506021	56.6438	6.934893	30.75878
771	7.09191	3.1508124	56.8528	6.934941	30.76202
772	7.09123	3.1509423	57.0406	6.934964	30.76394
773	7.09050	3.1508991	57.2346	6.935078	30.76404
774	7.08925	3.1510537	57.4223	6.935159	30.76674
775	7.08852	3.1510229	57.6284	6.935268	30.76696
776	7.08816	3.1508437	57.8616	6.935404	30.76524
777	7.08774	3.1510416	58.0947	6.935363	30.76765
778	7.08706	3.1514435	58.2704	6.935254	30.77252
779	7.08555	3.1512334	58.4613	6.935545	30.77151
780	7.08404	3.1514746	58.6642	6.935616	30.77537
781	7.08337	3.1515798	58.8732	6.935652	30.77701
782	7.08290	3.1516231	59.0792	6.935692	30.77781
783	7.08201	3.1517716	59.2821	6.935732	30.78011
784	7.08118	3.1519201	59.4850	6.935765	30.78236
785	7.08003	3.1519511	59.6668	6.935894	30.78364
786	7.07847	3.1521181	59.8637	6.936007	30.78675
787	7.07702	3.1522851	60.0697	6.936108	30.78976
788	7.07556	3.1524027	60.2818	6.936233	30.79224
789	7.07394	3.1526996	60.4757	6.936290	30.79680
790	7.07259	3.1527491	60.6695	6.936435	30.79845
791	7.07103	3.1528234	60.8816	6.936594	30.80055
792	7.06978	3.1530028	61.0875	6.936663	30.80352
793	7.06910	3.1531513	61.2754	6.936677	30.80564
794	7.06843	3.1531514	61.4783	6.936764	30.80615
795	7.06744	3.1532257	61.6812	6.936853	30.80775
796	7.06681	3.1533000	61.8874	6.936897	30.80902
797	7.06629	3.1534237	62.0781	6.936904	30.81073
798	7.06567	3.1534856	62.2903	6.936955	30.81186
799	7.06468	3.1535723	62.4870	6.937037	30.81359
800	7.06380	3.1536342	62.6749	6.937119	30.81497
801	7.06307	3.1536961	62.8778	6.937182	30.81620
802	7.06239	3.1537209	63.0898	6.937257	30.81697
803	7.06187	3.1538447	63.2866	6.937264	30.81869
804	7.06145	3.1539066	63.4776	6.937289	30.81964
805	7.06104	3.1540798	63.6805	6.937259	30.82180
806	7.05989	3.1542655	63.8804	6.937313	30.82474
807	7.05890	3.1545315	64.0805	6.937308	30.82841
808	7.05792	3.1546862	64.2712	6.937357	30.83088
809	7.05661	3.1547790	64.4712	6.937475	30.83295
810	7.05537	3.1547420	64.6589	6.937649	30.83358
811	7.05422	3.1547730	64.8620	6.937778	30.83485
812	7.05323	3.1548040	65.0711	6.937888	30.83597
813	7.05235	3.1549278	65.2681	6.937940	30.83801
814	7.05152	3.1550330	65.4679	6.937994	30.83981
815	7.05058	3.1551073	65.6616	6.938076	30.84136
816	7.04970	3.1552868	65.8676	6.938101	30.84400
817	7.04891	3.1553487	66.0526	6.938170	30.84528
818	7.04767	3.1553735	66.2494	6.938314	30.84658
819	7.04611	3.1554416	66.4463	6.938476	30.84862
820	7.04439	3.1554974	66.6492	6.938662	30.85067
821	7.04293	3.1555841	66.8521	6.938802	30.85282
822	7.04127	3.1557388	67.0460	6.938934	30.85589
823	7.03981	3.1557945	67.2310	6.939088	30.85772
824	7.03867	3.1558565	67.4428	6.939202	30.85931
825	7.03763	3.1559184	67.6852	6.939304	30.86080
826	7.03685	3.1562154	67.8853	6.939258	30.86463
827	7.03628	3.1562155	68.0727	6.939332	30.86505
828	7.03492	3.1563084	68.2728	6.939456	30.86718
829	7.03300	3.1565869	68.4758	6.939559	30.87182
830	7.03128	3.1567911	68.6667	6.939673	30.87548
831	7.02978	3.1569087	68.8727	6.939804	30.87801
832	7.02832	3.1570882	69.0665	6.939898	30.88117
833	7.02676	3.1570883	69.2635	6.940093	30.88248
834	7.02499	3.1571255	69.4814	6.940295	30.88437
835	7.02271	3.1573607	69.6844	6.940464	30.88887
836	7.01969	3.1576578	69.8905	6.940691	30.89470
837	7.01548	3.1581096	70.0844	6.940989	30.90328
838	7.01101	3.1583820	70.2781	6.941406	30.91015
839	7.00638	3.1588091	70.4841	6.941767	30.91883
840	7.00192	3.1592858	70.6809	6.942084	30.92791
841	6.99807	3.1595582	70.8810	6.942424	30.93423
842	6.99485	3.1598244	71.0808	6.942692	30.93991
843	6.99225	3.1600040	71.2748	6.942925	30.94410
844	6.98971	3.1602393	71.4746	6.943125	30.94885
845	6.98752	3.1605488	71.6837	6.943245	30.95407
846	6.98555	3.1607594	71.8746	6.943387	30.95804
847	6.98311	3.1610318	72.0684	6.943556	30.96310
848	6.98077	3.1612981	72.2710	6.943715	30.96799
849	6.97854	3.1615396	72.4744	6.943874	30.97252
850	6.97683	3.1616635	72.6619	6.944027	30.97532
851	6.97522	3.1617502	72.8650	6.944185	30.97762
852	6.97329	3.1618741	73.0588	6.944363	30.98060
853	6.97179	3.1620228	73.2590	6.944478	30.98348
854	6.97039	3.1620167	73.4558	6.944657	30.98458
855	6.96914	3.1621467	73.6496	6.944749	30.98703
856	6.96675	3.1625059	73.8434	6.944869	30.99298
857	6.96343	3.1628961	74.0373	6.945088	31.00012
858	6.95777	3.1639241	74.2583	6.945281	31.01626
859	6.94864	3.1651566	74.4523	6.945797	31.03778
860	6.93888	3.1661167	74.6491	6.946522	31.05691
861	6.93063	3.1666310	74.8431	6.947281	31.06985
862	6.92374	3.1669347	75.0400	6.947979	31.07929
863	6.91793	3.1670835	75.2307	6.948620	31.08606
864	6.91331	3.1674181	75.4247	6.949023	31.09378
865	6.90994	3.1677465	75.6246	6.949278	31.10030
866	6.90714	3.1678086	75.8123	6.949593	31.10342
867	6.90445	3.1679016	76.0001	6.949881	31.10678
868	6.90227	3.1680813	76.2031	6.950063	31.11061
869	6.90066	3.1680504	76.3940	6.950278	31.11164
870	6.89864	3.1683231	76.5969	6.950396	31.11634
871	6.89621	3.1685400	76.7906	6.950591	31.12081
872	6.89382	3.1687446	76.9938	6.950786	31.12510
873	6.89154	3.1689553	77.2148	6.950965	31.12935
874	6.88916	3.1691661	77.4539	6.951158	31.13369
875	6.88703	3.1695318	77.6569	6.951242	31.13950
876	6.88465	3.1695319	77.8448	6.951537	31.14157
877	6.88196	3.1698480	78.0479	6.951715	31.14736
878	6.87906	3.1700464	78.2447	6.951976	31.15205
879	6.87678	3.1700774	78.4477	6.952244	31.15436
880	6.87496	3.1702262	78.6474	6.952396	31.15753
881	6.87325	3.1703750	78.8474	6.952536	31.16061
882	6.87170	3.1703751	79.0443	6.952730	31.16193
883	6.86989	3.1705797	79.2381	6.952855	31.16571
884	6.86730	3.1708897	79.4351	6.953023	31.17134
885	6.86388	3.1711315	79.6320	6.953326	31.17698
886	6.86000	3.1714972	79.8289	6.953625	31.18439
887	6.85611	3.1716771	80.0227	6.954015	31.18978
888	6.85244	3.1717950	80.2257	6.954411	31.19431
889	6.84948	3.1719500	80.4284	6.954699	31.19858
890	6.84721	3.1720988	80.6376	6.954909	31.20217
891	6.84550	3.1721609	80.8374	6.955091	31.20431
892	6.84405	3.1722230	81.0250	6.955242	31.20621
893	6.84265	3.1722788	81.2129	6.955389	31.20800
894	6.84141	3.1723099	81.4070	6.955529	31.20938
895	6.84068	3.1723348	81.6070	6.955610	31.21022
896	6.84006	3.1724030	81.7974	6.955656	31.21144
897	6.83986	3.1724898	81.9915	6.955643	31.21248
898	6.83960	3.1724031	82.1792	6.955721	31.21168
899	6.83913	3.1724342	82.3853	6.955767	31.21235
900	6.83882	3.1724900	82.5821	6.955781	31.21315
901	6.83867	3.1724963	82.7850	6.955802	31.21327
902	6.83789	3.1726451	82.9819	6.955827	31.21550
903	6.83685	3.1727320	83.1697	6.955915	31.21730
904	6.83546	3.1727631	83.3727	6.956075	31.21881
905	6.83401	3.1728561	83.5696	6.956210	31.22105
906	6.83261	3.1729182	83.7603	6.956354	31.22291
907	6.83111	3.1730360	83.9542	6.956484	31.22547
908	6.82966	3.1730981	84.1481	6.956634	31.22737
909	6.82826	3.1730672	84.3419	6.956824	31.22822
910	6.82713	3.1731293	84.5450	6.956937	31.22983
911	6.82573	3.1731913	84.7358	6.957081	31.23169
912	6.82231	3.1734580	84.9357	6.957372	31.23761
913	6.81538	3.1740595	85.1295	6.957927	31.25038
914	6.80545	3.1746425	85.3234	6.958857	31.26568
915	6.79485	3.1749092	85.5022	6.960025	31.27816
916	6.78581	3.1750644	85.6959	6.961059	31.28800
917	6.77842	3.1752134	85.8777	6.961894	31.29628
918	6.77263	3.1751577	86.0656	6.962633	31.30086
919	6.76824	3.1751826	86.2653	6.963162	31.30504
920	6.76472	3.1752695	86.4622	6.963553	31.30911
921	6.76183	3.1752138	86.6440	6.963939	31.31105
922	6.75909	3.1750960	86.8531	6.964336	31.31217
923	6.75646	3.1749721	87.1044	6.964725	31.31310
924	6.75351	3.1752451	87.3193	6.964955	31.31867
925	6.75010	3.1754250	87.5041	6.965287	31.32366
926	6.74685	3.1754003	87.6918	6.965702	31.32627
927	6.74220	3.1757600	87.8950	6.966097	31.33435
928	6.73461	3.1762749	88.1010	6.966775	31.34681
929	6.72558	3.1766657	88.2916	6.967692	31.35925
930	6.71505	3.1771559	88.4795	6.968742	31.37415
931	6.70411	3.1775158	88.6824	6.969907	31.38800
932	6.69509	3.1777020	88.8823	6.970924	31.39821
933	6.68771	3.1777890	89.0791	6.971789	31.40582
934	6.68220	3.1778821	89.2608	6.972422	31.41181
935	6.67766	3.1779133	89.4608	6.972967	31.41622
936	6.67405	3.1780312	89.6487	6.973355	31.42073
937	6.67049	3.1780313	89.8426	6.973794	31.42390
938	6.66699	3.1782733	90.0425	6.974108	31.42967
939	6.66286	3.1785029	90.2302	6.974503	31.43588
940	6.65864	3.1785465	90.4271	6.975004	31.44014
941	6.65421	3.1786706	90.6302	6.975489	31.44547
942	6.65070	3.1787576	90.8268	6.975880	31.44955
943	6.64777	3.1788507	91.0238	6.976197	31.45317
944	6.64473	3.1789687	91.2206	6.976516	31.45716
945	6.64184	3.1790928	91.4084	6.976811	31.46108
946	6.63906	3.1792046	91.6146	6.977101	31.46477
947	6.63623	3.1793350	91.8144	6.977388	31.46871
948	6.63381	3.1794839	92.0171	6.977615	31.47247
949	6.63149	3.1796701	92.2140	6.977810	31.47655
950	6.62917	3.1797881	92.4139	6.978040	31.47988
951	6.62691	3.1799123	92.6138	6.978260	31.48323
952	6.62454	3.1799682	92.8079	6.978527	31.48593
953	6.62258	3.1800365	93.0166	6.978737	31.48838
954	6.62083	3.1801235	93.2165	6.978913	31.49085
955	6.61934	3.1802166	93.4074	6.979054	31.49315
956	6.61780	3.1803966	93.6103	6.979158	31.49645
957	6.61574	3.1805456	93.7984	6.979340	31.49989
958	6.61383	3.1806077	93.9951	6.979547	31.50223
959	6.61188	3.1807319	94.1949	6.979729	31.50530
960	6.61002	3.1809306	94.3948	6.979861	31.50909
961	6.60827	3.1810299	94.5886	6.980031	31.51170
962	6.60539	3.1813341	94.7795	6.980236	31.51760
963	6.60091	3.1816693	94.9703	6.980623	31.52531
964	6.59530	3.1820603	95.1611	6.981119	31.53468
965	6.58954	3.1823956	95.3490	6.981663	31.54358
966	6.58368	3.1826377	95.5399	6.982265	31.55155
967	6.57859	3.1828861	95.7337	6.982770	31.55888
968	6.57421	3.1830041	95.9215	6.983252	31.56412
969	6.57046	3.1830353	96.1180	6.983701	31.56783
970	6.56707	3.1830974	96.3031	6.984090	31.57156
971	6.56362	3.1830975	96.5302	6.984518	31.57463
972	6.56033	3.1832466	96.7665	6.984852	31.57920
973	6.55761	3.1835508	96.9601	6.985038	31.58496
974	6.55488	3.1837495	97.1389	6.985277	31.58958
975	6.55195	3.1838551	97.3358	6.985588	31.59335
976	6.54866	3.1839173	97.5510	6.985965	31.59697
977	6.54599	3.1839733	97.7567	6.986270	31.59996
978	6.54347	3.1841285	97.9505	6.986505	31.60390
979	6.54003	3.1842776	98.1477	6.986857	31.60863
980	6.53597	3.1844329	98.3352	6.987282	31.61400
981	6.53248	3.1846813	98.5413	6.987591	31.61987
982	6.52873	3.1846752	98.7351	6.988058	31.62317
983	6.52493	3.1848864	98.9470	6.988424	31.62891
984	6.52169	3.1850665	99.1289	6.988735	31.63380
985	6.51825	3.1851907	99.3288	6.989099	31.63826
986	6.51537	3.1851908	99.5256	6.989457	31.64083
987	6.51322	3.1851909	99.7224	6.989726	31.64273
988	6.51147	3.1852531	99.9132	6.989913	31.64494
989	6.50952	3.1852594	100.1100	6.990154	31.64673
990	6.50747	3.1852532	100.3068	6.990413	31.64847
991	6.50536	3.1854023	100.5006	6.990601	31.65197
992	6.50351	3.1854645	100.7035	6.990801	31.65427
993	6.50197	3.1855577	100.9068	6.990948	31.65662
994	6.50089	3.1856447	101.0883	6.991041	31.65849
995	6.49992	3.1857068	101.2882	6.991134	31.65999
996	6.49894	3.1857069	101.5001	6.991258	31.66079
997	6.49627	3.1860733	101.6973	6.991406	31.66720
998	6.49242	3.1863777	101.8908	6.991731	31.67403
999	6.48832	3.1865268	102.0848	6.992164	31.67939
1000	6.48411	3.1867380	102.2876	6.992579	31.68552
1001	6.48011	3.1869803	102.4847	6.992954	31.69180
1002	6.47595	3.1872846	102.6843	6.993316	31.69892
1003	6.47257	3.1874400	102.8873	6.993658	31.70367
1004	6.46974	3.1876326	103.0810	6.993912	31.70832
1005	6.46672	3.1878003	103.2718	6.994204	31.71289
1006	6.46313	3.1880489	103.4839	6.994525	31.71886
1007	6.46041	3.1882601	103.6839	6.994757	31.72362
1008	6.45790	3.1882912	103.8837	6.995054	31.72620
1009	6.45569	3.1884404	104.0715	6.995254	31.72981
1010	6.45344	3.1885957	104.2684	6.995458	31.73352
1011	6.45123	3.1887759	104.4654	6.995642	31.73746
1012	6.44810	3.1889810	104.6713	6.995928	31.74253
1013	6.44477	3.1891426	104.8590	6.996260	31.74732
1014	6.44159	3.1892296	105.0528	6.996611	31.75115
1015	6.43929	3.1892297	105.2527	6.996899	31.75320
1016	6.43770	3.1893540	105.4527	6.997036	31.75595
1017	6.43636	3.1893541	105.6554	6.997204	31.75710
1018	6.43549	3.1893541	105.8613	6.997315	31.75781
1019	6.43472	3.1893232	106.0763	6.997430	31.75808
1020	6.43416	3.1891058	106.3156	6.997614	31.75610
1021	6.43365	3.1892301	106.5428	6.997619	31.75784
1022	6.43267	3.1893234	106.7459	6.997696	31.75968
1023	6.43185	3.1893856	106.9396	6.997770	31.76103
1024	6.43098	3.1893235	107.1636	6.997913	31.76105
1025	6.43088	3.1892925	107.3755	6.997946	31.76071
1026	6.43057	3.1893547	107.5845	6.997957	31.76158
1027	6.43011	3.1893858	107.7873	6.998002	31.76226
1028	6.42955	3.1893983	107.9995	6.998070	31.76282
1029	6.42909	3.1894792	108.2084	6.998090	31.76404
1030	6.42852	3.1895351	108.4114	6.998136	31.76509
1031	6.42765	3.1895973	108.6204	6.998216	31.76648
1032	6.42591	3.1896285	108.8292	6.998419	31.76835
1033	6.42452	3.1896906	109.0382	6.998563	31.77022
1034	6.42263	3.1896907	109.2501	6.998800	31.77189
1035	6.42058	3.1897529	109.4501	6.999025	31.77439
1036	6.41884	3.1898400	109.6588	6.999200	31.77687
1037	6.41602	3.1899457	109.8590	6.999497	31.78057
1038	6.41228	3.1900265	110.0709	6.999921	31.78484
1039	6.40864	3.1902068	110.2828	7.000282	31.79012
1040	6.40490	3.1903311	110.5009	7.000684	31.79487
1041	6.40132	3.1905114	110.7098	7.001038	31.80010
1042	6.39548	3.1909091	110.9220	7.001560	31.80983
1043	6.38831	3.1911826	111.1398	7.002309	31.81943
1044	6.38084	3.1913939	111.3549	7.003126	31.82864
1045	6.37434	3.1915805	111.5638	7.003836	31.83666
1046	6.36912	3.1916365	111.7669	7.004454	31.84206
1047	6.36533	3.1917609	111.9667	7.004861	31.84687
1048	6.36226	3.1918169	112.1876	7.005216	31.85026
1049	6.35960	3.1918480	112.4056	7.005532	31.85298
1050	6.35674	3.1919413	112.6267	7.005842	31.85658
1051	6.35418	3.1920036	112.8388	7.006130	31.85956
1052	6.35162	3.1920347	113.0446	7.006434	31.86220
1053	6.34978	3.1920348	113.2629	7.006665	31.86382
1054	6.34819	3.1920349	113.4777	7.006865	31.86520
1055	6.34707	3.1919107	113.6988	7.007071	31.86477
1056	6.34574	3.1919418	113.9199	7.007223	31.86625
1057	6.34446	3.1920351	114.1317	7.007338	31.86838
1058	6.34339	3.1920973	114.3406	7.007443	31.86997
1059	6.34257	3.1920974	114.5558	7.007549	31.87063
1060	6.34200	3.1921223	114.7798	7.007610	31.87133
1061	6.34160	3.1921535	114.9856	7.007649	31.87196
1062	6.34098	3.1921908	115.1976	7.007711	31.87284
1063	6.34047	3.1921847	115.4095	7.007781	31.87315
1064	6.33975	3.1922469	115.6158	7.007842	31.87441
1065	6.33914	3.1922470	115.8366	7.007923	31.87488
1066	6.33868	3.1922781	116.0547	7.007968	31.87555
1067	6.33837	3.1922471	116.2757	7.008027	31.87539
1068	6.33796	3.1922472	116.4966	7.008082	31.87567
1069	6.33766	3.1922162	116.7544	7.008141	31.87549
1070	6.33664	3.1925207	116.9906	7.008118	31.87970
1071	6.33290	3.1928688	117.1934	7.008406	31.88695
1072	6.32845	3.1930988	117.4084	7.008841	31.89355
1073	6.32477	3.1932854	117.6354	7.009205	31.89895
1074	6.32232	3.1935589	117.8505	7.009373	31.90417
1075	6.31982	3.1940748	118.0715	7.009425	31.91212
1076	6.31516	3.1948642	118.2955	7.009603	31.92511
1077	6.31097	3.1967540	118.5105	7.009167	31.94985
1078	6.30847	3.1974567	118.7346	7.009124	31.95987
1079	6.30653	3.1991978	118.9585	7.008487	31.98086
1080	6.30351	3.2001059	119.1707	7.008402	31.99365
1081	6.29922	3.2004480	119.3886	7.008761	32.00136
1082	6.29580	3.2006596	119.6009	7.009080	32.00682
1083	6.29248	3.2008712	119.8126	7.009385	32.01218
1084	6.28885	3.2009957	120.0427	7.009773	32.01686
1085	6.28487	3.2011762	120.2608	7.010177	32.02250
1086	6.28165	3.2012696	120.4757	7.010530	32.02646
1087	6.27910	3.2014563	120.6968	7.010754	32.03082
1088	6.27700	3.2015434	120.9147	7.010972	32.03366
1089	6.27435	3.2015435	121.1236	7.011303	32.03605
1090	6.27052	3.2014255	121.3388	7.011839	32.03824
1091	6.26455	3.2008160	121.5658	7.012888	32.03700
1092	6.25490	3.2001694	121.7900	7.014408	32.03880
1093	6.24408	3.2000825	122.0078	7.015789	32.04791
1094	6.23454	3.2004496	122.2229	7.016782	32.06087
1095	6.22699	3.2007856	122.4349	7.017545	32.07161
1096	6.22194	3.2012709	122.6528	7.017925	32.08165
1097	6.21889	3.2015447	122.8769	7.018168	32.08747
1098	6.21674	3.2017003	123.0921	7.018357	32.09111
1099	6.21516	3.2018185	123.3041	7.018496	32.09381
1100	6.21419	3.2019119	123.5128	7.018572	32.09566
1101	6.21317	3.2019120	123.7338	7.018703	32.09652
1102	6.21246	3.2019432	123.9580	7.018780	32.09743
1103	6.21185	3.2020677	124.1668	7.018796	32.09929
1104	6.21047	3.2020677	124.3848	7.018971	32.10049
1105	6.20818	3.2020678	124.5939	7.019258	32.10255
1106	6.20588	3.2020990	124.8211	7.019530	32.10496
1107	6.19997	3.2022796	125.0421	7.020171	32.11244
1108	6.19217	3.2025534	125.2569	7.020997	32.12274
1109	6.18336	3.2028024	125.4687	7.021961	32.13373
1110	6.17602	3.2029519	125.6717	7.022793	32.14223
1111	6.16971	3.2030142	125.8779	7.023544	32.14879
1112	6.16237	3.2033192	126.0959	7.024297	32.15902
1113	6.15514	3.2034936	126.3107	7.025104	32.16769
1114	6.14532	3.2037177	126.5319	7.026206	32.17938
1115	6.13529	3.2039295	126.7255	7.027338	32.19114
1116	6.12685	3.2039918	126.9495	7.028353	32.19973
1117	6.12079	3.2038364	127.1979	7.029185	32.20362
1118	6.11728	3.2037183	127.4733	7.029685	32.20550
1119	6.11418	3.2039922	127.7036	7.029932	32.21138
1120	6.11118	3.2042661	127.9066	7.030167	32.21718
1121	6.10914	3.2042662	128.1122	7.030422	32.21901
1122	6.10777	3.2042351	128.3334	7.030613	32.21986
1123	6.10711	3.2041792	128.5607	7.030728	32.21976
1124	6.10686	3.2042353	128.7665	7.030735	32.22052
1125	6.10655	3.2042976	128.9753	7.030746	32.22141
1126	6.10619	3.2042354	129.1813	7.030826	32.22095
1127	6.10584	3.2042355	129.3960	7.030875	32.22119
1128	6.10548	3.2042355	129.6083	7.030923	32.22142
1129	6.10518	3.2042356	129.8172	7.030965	32.22161
1130	6.10421	3.2042357	130.0259	7.031089	32.22243
1131	6.10263	3.2043291	130.2412	7.031241	32.22486
1132	6.09948	3.2044848	130.4561	7.031555	32.22949
1133	6.09526	3.2045720	130.6709	7.032036	32.23436
1134	6.09186	3.2046032	130.8891	7.032445	32.23784
1135	6.08906	3.2046966	131.1070	7.032747	32.24143
1136	6.08682	3.2046905	131.3190	7.033031	32.24338
1137	6.08504	3.2047590	131.5371	7.033220	32.24573
1138	6.08327	3.2047902	131.7520	7.033429	32.24766
1139	6.08184	3.2048214	131.9669	7.033593	32.24926
1140	6.08062	3.2048215	132.1817	7.033748	32.25031
1141	6.07864	3.2049710	132.3999	7.033921	32.25376
1142	6.07554	3.2050333	132.6150	7.034277	32.25729
1143	6.07295	3.2051267	132.8268	7.034554	32.26070
1144	6.07097	3.2051268	133.0447	7.034803	32.26248
1145	6.06954	3.2051269	133.2628	7.034983	32.26372
1146	6.06812	3.2051581	133.4778	7.035148	32.26532
1147	6.06462	3.2054942	133.6838	7.035413	32.27230
1148	6.05695	3.2057247	133.8956	7.036247	32.28207
1149	6.04968	3.2058617	134.1226	7.037078	32.29040
1150	6.04379	3.2059801	134.3437	7.037750	32.29722
1151	6.03922	3.2060736	134.5525	7.038271	32.30251
1152	6.03501	3.2061048	134.7617	7.038780	32.30677
1153	6.03156	3.2061671	134.9705	7.039179	32.31065
1154	6.02846	3.2062295	135.1763	7.039535	32.31420
1155	6.02541	3.2062607	135.3913	7.039900	32.31734
1156	6.02277	3.2063168	135.6094	7.040202	32.32038
1157	6.01892	3.2065036	135.8243	7.040587	32.32604
1158	6.01095	3.2069644	136.0334	7.041339	32.33868
1159	6.00080	3.2072695	136.2392	7.042441	32.35167
1160	5.99056	3.2075996	136.4482	7.043542	32.36503
1161	5.98067	3.2076683	136.6509	7.044734	32.37515
1162	5.97129	3.2078801	136.8539	7.045789	32.38638
1163	5.96207	3.2080919	137.0506	7.046825	32.39747
1164	5.95046	3.2085527	137.2718	7.048027	32.41362
1165	5.93638	3.2089203	137.4927	7.049585	32.43111
1166	5.92276	3.2088894	137.7530	7.051292	32.44368
1167	5.91106	3.2091075	138.0014	7.052632	32.45721
1168	5.90048	3.2094750	138.2224	7.053757	32.47137
1169	5.89173	3.2096246	138.4222	7.054768	32.48135
1170	5.88551	3.2095936	138.6313	7.055559	32.48687
1171	5.88080	3.2095937	138.8521	7.056147	32.49128
1172	5.87716	3.2096872	139.0610	7.056554	32.49573
1173	5.87407	3.2097620	139.2610	7.056902	32.49943
1174	5.87109	3.2098991	139.4638	7.057205	32.50374
1175	5.86836	3.2100237	139.6757	7.057483	32.50766
1176	5.86659	3.2101483	139.8875	7.057643	32.51065
1177	5.86442	3.2101484	140.0995	7.057917	32.51264
1178	5.86234	3.2101796	140.3116	7.058162	32.51488
1179	5.86017	3.2102420	140.5206	7.058404	32.51757
1180	5.85850	3.2102670	140.7232	7.058602	32.51935
1181	5.85724	3.2102422	140.9474	7.058777	32.52018
1182	5.85628	3.2102983	141.1505	7.058871	32.52163
1183	5.85542	3.2102983	141.3594	7.058983	32.52236
1184	5.85456	3.2103295	141.5622	7.059077	32.52343
1185	5.85370	3.2103296	141.7708	7.059189	32.52416
1186	5.85269	3.2103297	141.9828	7.059319	32.52503
1187	5.85208	3.2103609	142.1979	7.059382	32.52586
1188	5.85112	3.2104108	142.4006	7.059480	32.52724
1189	5.84945	3.2104856	142.6004	7.059653	32.52959
1190	5.84738	3.2105168	142.8095	7.059898	32.53183
1191	5.84551	3.2105792	143.0122	7.060102	32.53423
1192	5.84374	3.2105793	143.2332	7.060326	32.53582
1193	5.84192	3.2106105	143.4452	7.060540	32.53782
1194	5.83975	3.2106106	143.6451	7.060814	32.53981
1195	5.83732	3.2106667	143.8508	7.061090	32.54268
1196	5.83469	3.2106979	144.0750	7.061405	32.54545
1197	5.83232	3.2107292	144.2808	7.061687	32.54798
1198	5.83060	3.2108538	144.4869	7.061840	32.55094
1199	5.82888	3.2109161	144.7077	7.062026	32.55318
1200	5.82691	3.2109785	144.9077	7.062242	32.55568
1201	5.82171	3.2112526	145.1228	7.062750	32.56367
1202	5.81181	3.2114147	145.3435	7.063898	32.57492
1203	5.80267	3.2114958	145.5493	7.064994	32.58454
1204	5.79409	3.2116828	145.7615	7.065965	32.59482
1205	5.78556	3.2118636	145.9763	7.066934	32.60498
1206	5.77829	3.2120817	146.1914	7.067727	32.61434
1207	5.77198	3.2121690	146.4004	7.068469	32.62131
1208	5.76553	3.2122003	146.5941	7.069258	32.62780
1209	5.75978	3.2122627	146.8060	7.069944	32.63396
1210	5.75483	3.2123251	147.0210	7.070530	32.63933
1211	5.75065	3.2124187	147.2357	7.071006	32.64432
1212	5.74732	3.2123876	147.4506	7.071440	32.64709
1213	5.74374	3.2124500	147.6537	7.071856	32.65115
1214	5.74082	3.2124812	147.8685	7.072208	32.65423
1215	5.73794	3.2124191	148.1019	7.072603	32.65619
1216	5.73598	3.2124503	148.3500	7.072836	32.65832
1217	5.73512	3.2124815	148.5709	7.072931	32.65939
1218	5.73401	3.2126934	148.7799	7.072963	32.66275
1219	5.73214	3.2127246	149.0009	7.073183	32.66480
1220	5.73073	3.2127247	149.2096	7.073363	32.66606
1221	5.73028	3.2126936	149.4216	7.073441	32.66605
1222	5.73008	3.2127248	149.6397	7.073454	32.66649
1223	5.72937	3.2127872	149.8637	7.073515	32.66776
1224	5.72836	3.2127873	150.0789	7.073645	32.66863
1225	5.72736	3.2127873	150.2936	7.073775	32.66950
1226	5.72655	3.2128497	150.5055	7.073847	32.67088
1227	5.72549	3.2128809	150.7114	7.073967	32.67216
1228	5.72468	3.2128810	150.9293	7.074072	32.67283
1229	5.72418	3.2129371	151.1384	7.074110	32.67385
1230	5.72373	3.2129123	151.3442	7.074184	32.67391
1231	5.72307	3.2129373	151.5592	7.074257	32.67472
1232	5.72232	3.2129373	151.7741	7.074356	32.67534
1233	5.72151	3.2129374	151.9924	7.074461	32.67602
1234	5.72065	3.2129686	152.2069	7.074556	32.67709
1235	5.71970	3.2129999	152.4190	7.074664	32.67827
1236	5.71859	3.2130311	152.6310	7.074790	32.67959
1237	5.71728	3.2130623	152.8457	7.074941	32.68110
1238	5.71597	3.2131247	153.0639	7.075076	32.68297
1239	5.71471	3.2130625	153.2787	7.075270	32.68338
1240	5.71375	3.2131560	153.4905	7.075345	32.68526
1241	5.71284	3.2132183	153.6965	7.075430	32.68674
1242	5.71128	3.2132184	153.8996	7.075628	32.68815
1243	5.70987	3.2131874	154.1081	7.075825	32.68906
1244	5.70916	3.2132186	154.3262	7.075901	32.68999
1245	5.70856	3.2132186	154.5381	7.075981	32.69047
1246	5.70791	3.2132499	154.7441	7.076051	32.69136
1247	5.70705	3.2133122	154.9499	7.076129	32.69279
1248	5.70634	3.2132936	155.1559	7.076231	32.69316
1249	5.70584	3.2132812	155.3678	7.076305	32.69340
1250	5.70519	3.2133124	155.5736	7.076375	32.69429
1251	5.70403	3.2133125	155.7886	7.076524	32.69531
1252	5.70297	3.2133687	155.9945	7.076630	32.69686
1253	5.70206	3.2133999	156.2005	7.076731	32.69799
1254	5.70121	3.2133377	156.4152	7.076875	32.69801
1255	5.70020	3.2133689	156.6241	7.076989	32.69924
1256	5.69939	3.2133378	156.8421	7.077110	32.69956
1257	5.69874	3.2134313	157.0419	7.077147	32.70115
1258	5.69828	3.2134002	157.2538	7.077225	32.70114
1259	5.69748	3.2134315	157.4628	7.077313	32.70217
1260	5.69667	3.2134004	157.6776	7.077434	32.70249
1261	5.69582	3.2134316	157.8956	7.077529	32.70357
1262	5.69516	3.2134317	158.1075	7.077616	32.70410
1263	5.69405	3.2134878	158.3228	7.077729	32.70570
1264	5.69290	3.2134941	158.5282	7.077874	32.70679
1265	5.69179	3.2134319	158.7554	7.078050	32.70705
1266	5.68997	3.2134320	159.0217	7.078281	32.70868
1267	5.68851	3.2135567	159.2488	7.078402	32.71139
1268	5.68685	3.2137063	159.4516	7.078535	32.71459
1269	5.68554	3.2136503	159.6575	7.078732	32.71513
1270	5.68428	3.2135881	159.8635	7.078926	32.71554
1271	5.68328	3.2136504	160.0842	7.079023	32.71711
1272	5.68222	3.2136817	160.2993	7.079143	32.71839
1273	5.68076	3.2136506	160.5110	7.079346	32.71935
1274	5.67980	3.2136818	160.7203	7.079453	32.72052
1275	5.67885	3.2136507	160.9320	7.079593	32.72100
1276	5.67759	3.2137380	161.1470	7.079709	32.72310
1277	5.67608	3.2137381	161.3590	7.079901	32.72446
1278	5.67517	3.2137382	161.5617	7.080019	32.72524
1279	5.67417	3.2137196	161.7766	7.080158	32.72590
1280	5.67316	3.2138006	161.9886	7.080246	32.72769
1281	5.67220	3.2137696	162.2007	7.080386	32.72816
1282	5.67150	3.2138319	162.4095	7.080446	32.72944
1283	5.67110	3.2138320	162.6214	7.080501	32.72973
1284	5.67064	3.2138632	162.8302	7.080545	32.73042
1285	5.67034	3.2138944	163.0391	7.080571	32.73096
1286	5.66964	3.2138322	163.2540	7.080697	32.73084
1287	5.66923	3.2138323	163.4598	7.080751	32.73113
1288	5.66858	3.2138947	163.6807	7.080805	32.73236
1289	5.66792	3.2138013	163.8900	7.080940	32.73183
1290	5.66702	3.2137702	164.0924	7.081074	32.73226
1291	5.66631	3.2138949	164.3045	7.081101	32.73425
1292	5.66571	3.2138638	164.5193	7.081197	32.73438
1293	5.66526	3.2138950	164.7286	7.081242	32.73507
1294	5.66480	3.2139574	164.9401	7.081270	32.73611
1295	5.66395	3.2139761	165.1491	7.081372	32.73705
1296	5.66259	3.2139887	165.3672	7.081539	32.73840
1297	5.66138	3.2140199	165.5821	7.081678	32.73982
1298	5.66002	3.2140511	165.7787	7.081835	32.74139
1299	5.65846	3.2140512	165.9908	7.082034	32.74280
1300	5.65655	3.2141074	166.1932	7.082247	32.74519
1301	5.65514	3.2141697	166.4084	7.082394	32.74716
1302	5.65378	3.2141698	166.6296	7.082568	32.74837
1303	5.65268	3.2142011	166.8355	7.082694	32.74970
1304	5.65217	3.2142011	167.0503	7.082761	32.75008
1305	5.65157	3.2142012	167.2590	7.082841	32.75056
1306	5.65056	3.2142324	167.4652	7.082955	32.75179
1307	5.64951	3.2142325	167.6710	7.083091	32.75272
1308	5.64815	3.2143260	167.8796	7.083216	32.75499
1309	5.64594	3.2143573	168.0918	7.083479	32.75739
1310	5.64347	3.2144196	168.3036	7.083758	32.76038
1311	5.64055	3.2145007	168.5126	7.084083	32.76403
1312	5.63789	3.2145382	168.7244	7.084400	32.76694
1313	5.63593	3.2145383	168.9301	7.084649	32.76875
1314	5.63447	3.2145695	169.1421	7.084819	32.77041
1315	5.63326	3.2144512	169.3722	7.085036	32.77014
1316	5.63215	3.2144825	169.6384	7.085164	32.77143
1317	5.63085	3.2145698	169.8626	7.085286	32.77358
1318	5.62904	3.2146633	170.0712	7.085466	32.77629
1319	5.62612	3.2147569	170.2681	7.085785	32.78009
1320	5.62154	3.2148816	170.4709	7.086293	32.78585
1321	5.61511	3.2149378	170.6740	7.087069	32.79264
1322	5.60978	3.2150002	170.8980	7.087705	32.79842
1323	5.60516	3.2150315	171.0949	7.088268	32.80318
1324	5.60129	3.2150939	171.3125	7.088722	32.80755
1325	5.59852	3.2151251	171.5185	7.089054	32.81049
1326	5.59646	3.2151252	171.7274	7.089316	32.81239
1327	5.59516	3.2151253	171.9362	7.089483	32.81356
1328	5.59415	3.2151441	172.1481	7.089603	32.81465
1329	5.59355	3.2151566	172.3598	7.089677	32.81527
1330	5.59305	3.2152190	172.5749	7.089711	32.81636
1331	5.59275	3.2151879	172.7748	7.089770	32.81621
1332	5.59255	3.2152191	172.9805	7.089783	32.81665
1333	5.59209	3.2152503	173.1863	7.089828	32.81734
1334	5.59104	3.2152504	173.4013	7.089964	32.81827
1335	5.58978	3.2153066	173.6103	7.090096	32.82002
1336	5.58863	3.2153066	173.8251	7.090244	32.82104
1337	5.58727	3.2153690	174.0278	7.090385	32.82297
1338	5.58536	3.2154314	174.2370	7.090595	32.82543
1339	5.58390	3.2154626	174.4486	7.090765	32.82710
1340	5.58235	3.2154939	174.6425	7.090947	32.82888
1341	5.58099	3.2155251	174.8603	7.091104	32.83044
1342	5.57994	3.2155252	175.0665	7.091240	32.83137
1343	5.57913	3.2155564	175.2814	7.091329	32.83240
1344	5.57808	3.2155876	175.4840	7.091448	32.83368
1345	5.57692	3.2156002	175.6809	7.091590	32.83485
1346	5.57567	3.2156501	175.8896	7.091725	32.83654
1347	5.57451	3.2157062	176.0864	7.091844	32.83820
1348	5.57341	3.2157063	176.2982	7.091986	32.83917
1349	5.57190	3.2157376	176.5011	7.092162	32.84090
1350	5.57075	3.2157376	176.7011	7.092311	32.84192
1351	5.56949	3.2157689	176.9007	7.092455	32.84340
1352	5.56859	3.2157689	177.0947	7.092572	32.84419
1353	5.56788	3.2157690	177.2974	7.092664	32.84477
1354	5.56728	3.2158002	177.4941	7.092727	32.84562
1355	5.56658	3.2158003	177.7090	7.092820	32.84620
1356	5.56613	3.2157692	177.9210	7.092898	32.84618
1357	5.56562	3.2156821	178.1781	7.093012	32.84556
1358	5.56542	3.2155887	178.4898	7.093093	32.84454
1359	5.56492	3.2156199	178.7684	7.093146	32.84525
1360	5.56417	3.2158007	178.9920	7.093150	32.84792
1361	5.56301	3.2159877	179.1679	7.093199	32.85107
1362	5.56211	3.2159940	179.3374	7.093312	32.85194
1363	5.56156	3.2159567	179.5130	7.093405	32.85197
1364	5.56126	3.2159568	179.7159	7.093447	32.85217
1365	5.56136	3.2159568	179.9186	7.093439	32.85197
1366	5.56136	3.2158634	180.1515	7.093494	32.85080
1367	5.56111	3.2158947	180.4059	7.093514	32.85127
1368	5.56080	3.2160193	180.6300	7.093491	32.85286
1369	5.56055	3.2161066	180.8117	7.093481	32.85400
1370	5.55985	3.2161379	180.9931	7.093556	32.85495
1371	5.55920	3.2161068	181.1719	7.093658	32.85515
1372	5.55865	3.2160196	181.3776	7.093777	32.85460
1373	5.55875	3.2160508	181.5744	7.093753	32.85476
1374	5.55890	3.2160509	181.7711	7.093739	32.85451
1375	5.55885	3.2160198	181.9799	7.093766	32.85411
1376	5.55865	3.2159887	182.1858	7.093812	32.85385
1377	5.55824	3.2159888	182.3980	7.093867	32.85414
1378	5.55819	3.2159888	182.6036	7.093878	32.85408
1379	5.55779	3.2160201	182.8185	7.093917	32.85472
1380	5.55759	3.2160264	183.0243	7.093943	32.85489
1381	5.55729	3.2160513	183.2363	7.093972	32.85536
1382	5.55714	3.2160514	183.4481	7.093996	32.85540
1383	5.55719	3.2160826	183.6541	7.093978	32.85560
1384	5.55704	3.2160827	183.8537	7.094001	32.85565
1385	5.55684	3.2161077	184.0417	7.094018	32.85604
1386	5.55644	3.2161389	184.2381	7.094056	32.85669
1387	5.55634	3.2161390	184.4379	7.094073	32.85669
1388	5.55644	3.2161079	184.6317	7.094081	32.85614
1389	5.55644	3.2161391	184.8346	7.094069	32.85639
1390	5.55649	3.2161703	185.0343	7.094051	32.85660
1391	5.55639	3.2161392	185.2222	7.094084	32.85625
1392	5.55624	3.2161393	185.4129	7.094108	32.85630
1393	5.55624	3.2161705	185.6216	7.094096	32.85655
1394	5.55588	3.2162017	185.8124	7.094128	32.85716
1395	5.55523	3.2162329	186.0089	7.094197	32.85805
1396	5.55408	3.2162642	186.1969	7.094329	32.85944
1397	5.55282	3.2162518	186.3873	7.094496	32.86043
1398	5.55197	3.2162955	186.5841	7.094584	32.86166
1399	5.55096	3.2163267	186.7719	7.094697	32.86290
1400	5.55036	3.2163268	186.9748	7.094777	32.86338
1401	5.54976	3.2163268	187.1745	7.094856	32.86387
1402	5.54896	3.2163892	187.3650	7.094928	32.86527
1403	5.54830	3.2163581	187.5590	7.095030	32.86546
1404	5.54795	3.2163270	187.7618	7.095095	32.86535
1405	5.54770	3.2163582	187.9583	7.095114	32.86585
1406	5.54745	3.2163583	188.1611	7.095150	32.86599
1407	5.54710	3.2163895	188.3583	7.095182	32.86659
1408	5.54680	3.2164208	188.5486	7.095207	32.86715
1409	5.54645	3.2164208	188.7454	7.095256	32.86739
1410	5.54620	3.2164209	188.9391	7.095291	32.86754
1411	5.54570	3.2164521	189.1359	7.095342	32.86829
1412	5.54519	3.2164522	189.3298	7.095409	32.86868
1413	5.54474	3.2164522	189.5174	7.095470	32.86903
1414	5.54439	3.2164211	189.7141	7.095534	32.86892
1415	5.54409	3.2164461	189.9079	7.095563	32.86940
1416	5.54384	3.2164836	190.1016	7.095579	32.86998
1417	5.54354	3.2164836	190.2983	7.095621	32.87018
1418	5.54319	3.2164837	190.4947	7.095670	32.87042
1419	5.54288	3.2164526	190.6919	7.095728	32.87027
1420	5.54233	3.2164527	190.9218	7.095802	32.87069
1421	5.54093	3.2164528	191.1851	7.095983	32.87193
1422	5.53987	3.2165152	191.4182	7.096087	32.87355
1423	5.53892	3.2165713	191.6241	7.096181	32.87502
1424	5.53777	3.2166337	191.8147	7.096296	32.87676
1425	5.53671	3.2166650	192.0022	7.096416	32.87805
1426	5.53596	3.2166339	192.2024	7.096530	32.87833
1427	5.53536	3.2166339	192.4171	7.096610	32.87881
1428	5.53461	3.2166340	192.6289	7.096709	32.87944
1429	5.53380	3.2166652	192.8438	7.096798	32.88048
1430	5.53285	3.2166965	193.0434	7.096905	32.88166
1431	5.53170	3.2167277	193.2617	7.097037	32.88303
1432	5.53029	3.2167901	193.4554	7.097184	32.88502
1433	5.52848	3.2168400	193.6641	7.097387	32.88724
1434	5.52668	3.2168838	193.8850	7.097594	32.88939
1435	5.52497	3.2169399	194.1001	7.097782	32.89159
1436	5.52357	3.2169712	194.2938	7.097945	32.89322
1437	5.52262	3.2169712	194.4902	7.098069	32.89406
1438	5.52116	3.2170025	194.6931	7.098238	32.89573
1439	5.51946	3.2170337	194.8960	7.098439	32.89765
1440	5.51765	3.2170650	195.1048	7.098653	32.89967
1441	5.51589	3.2170962	195.3138	7.098860	32.90163
1442	5.51409	3.2171586	195.5166	7.099057	32.90400
1443	5.51258	3.2171898	195.7190	7.099233	32.90573
1444	5.51133	3.2172522	195.9132	7.099360	32.90757
1445	5.50927	3.2173146	196.1189	7.099589	32.91018
1446	5.50652	3.2173147	196.3094	7.099937	32.91279
1447	5.50386	3.2173460	196.5213	7.100257	32.91563
1448	5.50160	3.2174022	196.7361	7.100513	32.91837
1449	5.49995	3.2174646	196.9417	7.100691	32.92060
1450	5.49860	3.2174335	197.1510	7.100882	32.92146
1451	5.49734	3.2174896	197.3536	7.101013	32.92323
1452	5.49634	3.2174648	197.5537	7.101156	32.92383
1453	5.49534	3.2174960	197.7653	7.101269	32.92506
1454	5.49464	3.2174961	197.9770	7.101362	32.92564
1455	5.49393	3.2175273	198.1798	7.101437	32.92658
1456	5.49323	3.2175274	198.3947	7.101530	32.92716
1457	5.49228	3.2175898	198.6036	7.101620	32.92870
1458	5.49148	3.2175899	198.8152	7.101725	32.92938
1459	5.49068	3.2176523	199.0275	7.101797	32.93076
1460	5.48982	3.2176835	199.2183	7.101891	32.93186
1461	5.48937	3.2176524	199.4237	7.101969	32.93184
1462	5.48857	3.2176836	199.6267	7.102057	32.93288
1463	5.48792	3.2176837	199.8293	7.102143	32.93342
1464	5.48722	3.2177461	200.0323	7.102202	32.93471
1465	5.48662	3.2177711	200.2289	7.102269	32.93549
1466	5.48626	3.2177462	200.4407	7.102331	32.93545
1467	5.48566	3.2177712	200.6439	7.102397	32.93622
1468	5.48541	3.2177713	200.8463	7.102433	32.93636
1469	5.48471	3.2178337	201.0552	7.102492	32.93765
1470	5.48381	3.2178151	201.2609	7.102620	32.93822
1471	5.48281	3.2177715	201.4970	7.102773	32.93859
1472	5.48165	3.2178028	201.7152	7.102905	32.93997
1473	5.48020	3.2178963	201.9390	7.103042	32.94234
1474	5.47890	3.2179276	202.1417	7.103193	32.94387
1475	5.47790	3.2179588	202.3385	7.103306	32.94511
1476	5.47734	3.2179589	202.5474	7.103380	32.94555
1477	5.47719	3.2179278	202.7532	7.103420	32.94524
1478	5.47699	3.2179590	202.9559	7.103433	32.94569
1479	5.47654	3.2179903	203.1648	7.103478	32.94638
1480	5.47609	3.2180215	203.3767	7.103522	32.94707
1481	5.47554	3.2180527	203.5851	7.103579	32.94786
1482	5.47484	3.2180216	203.7822	7.103688	32.94810
1483	5.47434	3.2181152	203.9848	7.103706	32.94955
1484	5.47394	3.2181153	204.1815	7.103760	32.94984
1485	5.47314	3.2181465	204.3781	7.103848	32.95089
1486	5.47248	3.2181777	204.5662	7.103917	32.95179
1487	5.47203	3.2183274	204.7174	7.103898	32.95385
1488	5.47188	3.2191252	204.8050	7.103496	32.96301
1489	5.47264	3.2194057	204.7996	7.103254	32.96546
1490	5.47684	3.2194057	204.7512	7.102728	32.96136
1491	5.48301	3.2194056	204.7149	7.101958	32.95534
1492	5.48712	3.2191562	204.7091	7.101578	32.94848
1493	5.48947	3.2192185	204.7426	7.101252	32.94687
1494	5.48897	3.2194055	204.7669	7.101216	32.94947
1495	5.48832	3.2197422	204.7700	7.101119	32.95392
1496	5.48792	3.2198045	204.7520	7.101136	32.95503
1497	5.48847	3.2198668	204.7429	7.101034	32.95520
1498	5.48982	3.2198357	204.7492	7.100882	32.95352
1499	5.49042	3.2197733	204.7675	7.100840	32.95222
1500	5.49012	3.2198668	204.7765	7.100828	32.95357
1501	5.48977	3.2201411	204.7737	7.100727	32.95702
1502	5.49027	3.2202658	204.7708	7.100599	32.95795
1503	5.49053	3.2201411	204.7648	7.100633	32.95629
1504	5.48982	3.2204466	204.7438	7.100559	32.96045
1505	5.48932	3.2204466	204.6656	7.100619	32.96098
1506	5.49328	3.2205712	204.5353	7.100057	32.95858
1507	5.49940	3.2205711	204.3753	7.099291	32.95267
1508	5.50321	3.2205710	204.2301	7.098813	32.94901
1509	5.50617	3.2206333	204.0943	7.098408	32.94689
1510	5.50827	3.2206020	203.9494	7.098158	32.94454
1511	5.50973	3.2203838	203.7768	7.098089	32.94073
1512	5.51123	3.2202652	203.6078	7.097960	32.93800
1513	5.51253	3.2202652	203.4326	7.097793	32.93681
1514	5.51253	3.2202339	203.2542	7.097806	32.93654
1515	5.51193	3.2201404	203.0760	7.097926	32.93616
1516	5.51153	3.2201715	202.8825	7.097955	32.93700
1517	5.51163	3.2201714	202.6981	7.097938	32.93700
1518	5.51173	3.2201714	202.5136	7.097921	32.93699
1519	5.51143	3.2201713	202.3173	7.097954	32.93738
1520	5.51103	3.2202024	202.1269	7.097984	32.93822
1521	5.51078	3.2202647	201.9302	7.097977	32.93927
1522	5.51088	3.2203831	201.7368	7.097898	32.94061
1523	5.51153	3.2202646	201.5497	7.097875	32.93872
1524	5.51203	3.2201710	201.3321	7.097857	32.93728
1525	5.51253	3.2203206	201.1324	7.097711	32.93858
1526	5.51319	3.2206011	200.9451	7.097477	32.94122
1527	5.51374	3.2207257	200.7605	7.097338	32.94218
1528	5.51394	3.2207817	200.5733	7.097279	32.94271
1529	5.51459	3.2207817	200.3828	7.097194	32.94217
1530	5.51494	3.2206943	200.1896	7.097192	32.94093
1531	5.51554	3.2206319	200.0050	7.097145	32.93973
1532	5.51594	3.2205383	199.8085	7.097140	32.93837
1533	5.51630	3.2204759	199.6091	7.097125	32.93742
1534	5.51710	3.2204447	199.4184	7.097037	32.93637
1535	5.51800	3.2204134	199.2372	7.096937	32.93523
1536	5.51890	3.2203199	199.0348	7.096869	32.93338
1537	5.52001	3.2202948	198.8414	7.096740	32.93212
1538	5.52066	3.2202948	198.6537	7.096655	32.93157
1539	5.52106	3.2202324	198.4694	7.096633	32.93056
1540	5.52146	3.2202011	198.2731	7.096595	32.92991
1541	5.52151	3.2202011	198.0766	7.096584	32.92996
1542	5.52081	3.2202010	197.8955	7.096668	32.93074
1543	5.51956	3.2202010	197.6988	7.096819	32.93206
1544	5.51880	3.2201698	197.5112	7.096925	32.93254
1545	5.51890	3.2201697	197.3210	7.096908	32.93253
1546	5.51815	3.2201696	197.1274	7.096998	32.93336
1547	5.51695	3.2201384	196.9400	7.097160	32.93428
1548	5.51650	3.2201696	196.7588	7.097195	32.93517
1549	5.51620	3.2201072	196.5622	7.097261	32.93485
1550	5.51559	3.2200136	196.3749	7.097381	32.93447
1551	5.51489	3.2199824	196.1840	7.097481	32.93490
1552	5.51434	3.2200135	195.9969	7.097529	32.93589
1553	5.51459	3.2200134	195.8095	7.097493	32.93573
1554	5.51439	3.2200134	195.6189	7.097514	32.93602
1555	5.51384	3.2200445	195.4257	7.097562	32.93701
1556	5.51319	3.2199821	195.2321	7.097672	32.93704
1557	5.51243	3.2199820	195.0358	7.097761	32.93787
1558	5.51198	3.2199508	194.8392	7.097829	32.93806
1559	5.51168	3.2198884	194.6427	7.097895	32.93774
1560	5.51158	3.2198634	194.4399	7.097916	32.93766
1561	5.51168	3.2198322	194.2440	7.097915	32.93730
1562	5.51163	3.2198321	194.0441	7.097917	32.93745
1563	5.51178	3.2198009	193.8446	7.097910	32.93705
1564	5.51213	3.2197696	193.6418	7.097878	32.93645
1565	5.51163	3.2197073	193.4459	7.097969	32.93633
1566	5.51093	3.2196760	193.2399	7.098068	32.93677
1567	5.51038	3.2196448	193.0465	7.098149	32.93705
1568	5.51068	3.2196447	192.8469	7.098107	32.93686
1569	5.51123	3.2195823	192.6447	7.098066	32.93571
1570	5.51088	3.2194888	192.4391	7.098155	32.93509
1571	5.51068	3.2194575	192.2424	7.098192	32.93503
1572	5.51103	3.2194325	192.0580	7.098157	32.93450
1573	5.51018	3.2194325	191.8647	7.098259	32.93543
1574	5.50887	3.2193015	191.6772	7.098486	32.93531
1575	5.50782	3.2192142	191.4777	7.098659	32.93545
1576	5.50812	3.2192142	191.2692	7.098617	32.93526
1577	5.50872	3.2191517	191.0395	7.098569	32.93408
1578	5.50983	3.2191828	190.8337	7.098410	32.93345
1579	5.50983	3.2192763	190.6435	7.098357	32.93461
1580	5.50902	3.2192762	190.4620	7.098453	32.93548
1581	5.50847	3.2192138	190.2716	7.098550	32.93541
1582	5.50938	3.2190579	190.0811	7.098515	32.93285
1583	5.51123	3.2190579	189.8815	7.098279	32.93114
1584	5.51193	3.2190890	189.6972	7.098171	32.93089
1585	5.51138	3.2190266	189.5094	7.098269	32.93082
1586	5.51088	3.2190016	189.3163	7.098340	32.93112
1587	5.51068	3.2189704	189.1316	7.098377	32.93106
1588	5.51093	3.2189703	188.9320	7.098341	32.93091
1589	5.51128	3.2189702	188.7418	7.098293	32.93066
1590	5.51153	3.2190013	188.5544	7.098241	32.93086
1591	5.51118	3.2189701	188.3640	7.098297	32.93095
1592	5.51058	3.2189701	188.1705	7.098367	32.93163
1593	5.51033	3.2189700	187.9830	7.098394	32.93197
1594	5.51043	3.2189450	187.7834	7.098390	32.93169
1595	5.51068	3.2189699	187.5989	7.098342	32.93181
1596	5.51108	3.2190010	187.4055	7.098271	32.93187
1597	5.51128	3.2190570	187.2152	7.098212	32.93240
1598	5.51168	3.2191505	187.0187	7.098108	32.93317
1599	5.51238	3.2192439	186.8221	7.097967	32.93364
1600	5.51299	3.2194308	186.6438	7.097789	32.93526
1601	5.51289	3.2195492	186.4535	7.097734	32.93679
1602	5.51268	3.2195492	186.2601	7.097755	32.93709
1603	5.51233	3.2194868	186.0692	7.097827	32.93682
1604	5.51479	3.2193371	185.8759	7.097595	32.93281
1605	5.52011	3.2189692	185.6827	7.097123	32.92353
1606	5.52537	3.2184455	185.4979	7.096739	32.91254
1607	5.52944	3.2180465	185.3072	7.096438	32.90414
1608	5.53280	3.2177410	185.1109	7.096176	32.89749
1609	5.53581	3.2174605	184.9269	7.095945	32.89146
1610	5.53852	3.2172173	184.7361	7.095731	32.88615
1611	5.54043	3.2169680	184.5366	7.095620	32.88156
1612	5.54228	3.2168183	184.3522	7.095464	32.87814
1613	5.54394	3.2168058	184.1617	7.095260	32.87648
1614	5.54529	3.2166624	183.9710	7.095162	32.87363
1615	5.54655	3.2165377	183.7748	7.095067	32.87109
1616	5.54770	3.2163569	183.5842	7.095014	32.86800
1617	5.54851	3.2162322	183.3967	7.094975	32.86590
1618	5.54921	3.2162633	183.2004	7.094867	32.86567
1619	5.54996	3.2162009	183.0099	7.094801	32.86432
1620	5.55051	3.2161385	182.8133	7.094761	32.86317
1621	5.55102	3.2161385	182.6229	7.094694	32.86277
1622	5.55142	3.2161072	182.4293	7.094656	32.86213
1623	5.55182	3.2160823	182.2419	7.094615	32.86154
1624	5.55207	3.2161071	182.0515	7.094566	32.86167
1625	5.55217	3.2161071	181.8671	7.094549	32.86167
1626	5.55242	3.2160509	181.6704	7.094543	32.86088
1627	5.55262	3.2162627	181.4830	7.094402	32.86318
1628	5.55262	3.2163873	181.2928	7.094332	32.86468
1629	5.55267	3.2163872	181.1020	7.094321	32.86473
1630	5.55287	3.2165118	180.9119	7.094226	32.86604
1631	5.55282	3.2168046	180.7120	7.094074	32.86950
1632	5.55282	3.2175836	180.4882	7.093658	32.87844
1633	5.55242	3.2176147	180.2800	7.093687	32.87928
1634	5.55122	3.2169665	180.0924	7.094174	32.87321
1635	5.55006	3.2165364	179.9140	7.094540	32.86956
1636	5.54951	3.2161999	179.7628	7.094783	32.86636
1637	5.54971	3.2157699	179.7025	7.094983	32.86132
1638	5.55102	3.2156827	179.7509	7.094868	32.85904
1639	5.55292	3.2155581	179.8238	7.094698	32.85573
1640	5.55428	3.2162622	179.8449	7.094158	32.86237
1641	5.55493	3.2172779	179.8240	7.093541	32.87325
1642	5.55468	3.2173091	179.7908	7.093555	32.87386
1643	5.55257	3.2165114	179.7787	7.094238	32.86689
1644	5.55071	3.2168480	179.7548	7.094291	32.87253
1645	5.54981	3.2173091	179.6788	7.094159	32.87867
1646	5.54841	3.2172779	179.5702	7.094348	32.87974
1647	5.54544	3.2171845	179.4522	7.094763	32.88164
1648	5.54349	3.2171221	179.3469	7.095038	32.88289
1649	5.54223	3.2171595	179.2408	7.095172	32.88460
1650	5.54138	3.2171532	179.1289	7.095279	32.88541
1651	5.54163	3.2168790	178.9838	7.095389	32.88213
1652	5.54198	3.2167543	178.7935	7.095406	32.88047
1653	5.54193	3.2166919	178.5728	7.095441	32.87992
1654	5.54088	3.2167230	178.3792	7.095551	32.88140
1655	5.53972	3.2167230	178.2312	7.095691	32.88260
1656	5.53917	3.2166606	178.1163	7.095790	32.88249
1657	5.53952	3.2166606	177.9985	7.095744	32.88221
1658	5.54033	3.2166917	177.8593	7.095624	32.88185
1659	5.54073	3.2166605	177.7051	7.095587	32.88118
1660	5.54113	3.2166916	177.5690	7.095517	32.88120
1661	5.54098	3.2166916	177.4423	7.095533	32.88141
1662	5.54088	3.2166915	177.3002	7.095543	32.88158
1663	5.54073	3.2166603	177.1640	7.095575	32.88144
1664	5.54068	3.2165980	177.0127	7.095610	32.88086
1665	5.54058	3.2165979	176.8588	7.095619	32.88104
1666	5.54058	3.2166290	176.7076	7.095599	32.88146
1667	5.54058	3.2166040	176.5473	7.095609	32.88126
1668	5.54053	3.2165666	176.3750	7.095631	32.88097
1669	5.54073	3.2165665	176.2088	7.095602	32.88086
1670	5.54048	3.2165665	176.0332	7.095629	32.88119
1671	5.54023	3.2165664	175.8576	7.095656	32.88152
1672	5.53972	3.2165352	175.6734	7.095731	32.88175
1673	5.53932	3.2165663	175.5011	7.095761	32.88258
1674	5.53882	3.2165663	175.3170	7.095819	32.88316
1675	5.53882	3.2165351	175.1323	7.095831	32.88290
1676	5.53882	3.2165662	174.9450	7.095811	32.88334
1677	5.53842	3.2165350	174.7604	7.095873	32.88347
1678	5.53812	3.2165661	174.5697	7.095889	32.88421
1679	5.53817	3.2166283	174.3824	7.095846	32.88496
1680	5.53827	3.2166594	174.1981	7.095813	32.88531
1681	5.53812	3.2167528	174.0046	7.095778	32.88661
1682	5.53757	3.2167216	173.8050	7.095858	32.88690
1683	5.53696	3.2167216	173.6023	7.095929	32.88759
1684	5.53591	3.2166592	173.3997	7.096088	32.88801
1685	5.53466	3.2166405	173.2064	7.096250	32.88912
1686	5.53355	3.2166903	172.9945	7.096356	32.89087
1687	5.53255	3.2167525	172.7888	7.096444	32.89266
1688	5.53240	3.2167836	172.5804	7.096441	32.89326
1689	5.53235	3.2167836	172.3807	7.096443	32.89341
1690	5.53170	3.2167523	172.1721	7.096536	32.89379
1691	5.53104	3.2167523	171.9755	7.096613	32.89453
1692	5.53059	3.2167522	171.7607	7.096664	32.89508
1693	5.53019	3.2167210	171.5550	7.096726	32.89522
1694	5.53014	3.2167209	171.3586	7.096727	32.89536
1695	5.52979	3.2167520	171.1532	7.096750	32.89616
1696	5.52944	3.2167520	170.9504	7.096789	32.89660
1697	5.52934	3.2167208	170.7540	7.096814	32.89645
1698	5.52959	3.2166896	170.5723	7.096795	32.89594
1699	5.52984	3.2166895	170.4092	7.096760	32.89577
1700	5.52984	3.2167829	170.2217	7.096706	32.89693
1701	5.52999	3.2168140	170.0222	7.096666	32.89723
1702	5.53039	3.2168139	169.8253	7.096612	32.89693
1703	5.53089	3.2168014	169.6474	7.096552	32.89639
1704	5.53094	3.2167827	169.4720	7.096551	32.89622
1705	5.53099	3.2168138	169.2844	7.096524	32.89661
1706	5.53129	3.2167826	169.1061	7.096499	32.89605
1707	5.53159	3.2168137	168.9185	7.096441	32.89621
1708	5.53149	3.2168136	168.7371	7.096449	32.89639
1709	5.53165	3.2168135	168.5557	7.096426	32.89634
1710	5.53165	3.2168446	168.3773	7.096406	32.89678
1711	5.53139	3.2168446	168.1988	7.096433	32.89711
1712	5.53129	3.2168445	168.0298	7.096441	32.89729
1713	5.53094	3.2168133	167.8390	7.096497	32.89738
1714	5.53059	3.2168133	167.6484	7.096537	32.89781
1715	5.53019	3.2168132	167.4550	7.096582	32.89830
1716	5.52969	3.2167508	167.2491	7.096673	32.89819
1717	5.52944	3.2166885	167.0529	7.096732	32.89782
1718	5.52919	3.2166572	166.8533	7.096776	32.89781
1719	5.52919	3.2166260	166.6538	7.096787	32.89756
1720	5.52863	3.2165948	166.4480	7.096868	32.89785
1721	5.52783	3.2165387	166.2513	7.096993	32.89809
1722	5.52718	3.2165324	166.0397	7.097073	32.89877
1723	5.52683	3.2165323	165.8342	7.097112	32.89921
1724	5.52648	3.2165073	165.6376	7.097164	32.89937
1725	5.52633	3.2164761	165.4319	7.097195	32.89926
1726	5.52663	3.2165072	165.2291	7.097136	32.89942
1727	5.52663	3.2165071	165.0178	7.097131	32.89953
1728	5.52648	3.2164448	164.8118	7.097178	32.89907
1729	5.52598	3.2164447	164.5999	7.097236	32.89967
1730	5.52573	3.2164758	164.3951	7.097246	32.90037
1731	5.52573	3.2164134	164.1860	7.097274	32.89976
1732	5.52563	3.2164134	163.9776	7.097281	32.89996
1733	5.52563	3.2164445	163.7686	7.097260	32.90042
1734	5.52542	3.2164444	163.5569	7.097280	32.90072
1735	5.52552	3.2164132	163.3453	7.097279	32.90037
1736	5.52593	3.2163819	163.1397	7.097241	32.89973
1737	5.52613	3.2163819	162.9339	7.097211	32.89964
1738	5.52608	3.2164130	162.7224	7.097196	32.90014
1739	5.52588	3.2164378	162.5076	7.097203	32.90073
1740	5.52563	3.2164440	162.2899	7.097226	32.90115
1741	5.52578	3.2164439	162.0781	7.097203	32.90111
1742	5.52618	3.2164127	161.8666	7.097164	32.90047
1743	5.52648	3.2163815	161.6516	7.097138	32.89993
1744	5.52658	3.2164126	161.4430	7.097104	32.90029
1745	5.52668	3.2164125	161.2311	7.097087	32.90029
1746	5.52688	3.2164124	161.0196	7.097057	32.90020
1747	5.52693	3.2163812	160.8139	7.097063	32.89990
1748	5.52723	3.2163811	160.6174	7.097020	32.89970
1749	5.52758	3.2164122	160.4330	7.096956	32.89980
1750	5.52783	3.2164433	160.2698	7.096905	32.89999
1751	5.52808	3.2163498	160.0880	7.096918	32.89878
1752	5.52818	3.2164432	159.8947	7.096852	32.89983
1753	5.52808	3.2165304	159.7012	7.096814	32.90102
1754	5.52808	3.2165304	159.5108	7.096810	32.90111
1755	5.52818	3.2165054	159.3351	7.096806	32.90082
1756	5.52828	3.2165053	159.1626	7.096790	32.90080
1757	5.52863	3.2165676	158.9815	7.096709	32.90126
1758	5.52894	3.2165052	158.7875	7.096700	32.90035
1759	5.52924	3.2165924	158.5942	7.096612	32.90114
1760	5.52939	3.2165923	158.4098	7.096589	32.90109
1761	5.52954	3.2165922	158.2131	7.096566	32.90104
1762	5.52949	3.2165299	158.0168	7.096600	32.90048
1763	5.52969	3.2166544	157.8080	7.096505	32.90180
1764	5.52974	3.2166544	157.6024	7.096494	32.90185
1765	5.52999	3.2166231	157.3967	7.096474	32.90135
1766	5.52994	3.2165919	157.2060	7.096493	32.90114
1767	5.52939	3.2165296	157.0035	7.096590	32.90108
1768	5.52909	3.2165918	156.7918	7.096589	32.90218
1769	5.52889	3.2166541	156.5860	7.096577	32.90319
1770	5.52874	3.2166540	156.3834	7.096591	32.90343
1771	5.52899	3.2166228	156.1686	7.096571	32.90294
1772	5.52899	3.2166539	155.9603	7.096550	32.90340
1773	5.52929	3.2166538	155.7575	7.096508	32.90320
1774	5.52934	3.2166537	155.5459	7.096496	32.90326
1775	5.52959	3.2166661	155.3399	7.096454	32.90326
1776	5.52964	3.2166848	155.1254	7.096433	32.90352
1777	5.52984	3.2166847	154.9135	7.096403	32.90343
1778	5.52999	3.2166846	154.7046	7.096379	32.90339
1779	5.53044	3.2166534	154.4872	7.096335	32.90270
1780	5.53069	3.2165910	154.2751	7.096331	32.90186
1781	5.53084	3.2165598	154.0640	7.096324	32.90146
1782	5.53104	3.2166220	153.8523	7.096261	32.90207
1783	5.53129	3.2167466	153.6403	7.096159	32.90335
1784	5.53119	3.2167777	153.4257	7.096151	32.90390
1785	5.53119	3.2168399	153.2107	7.096113	32.90472
1786	5.53119	3.2168710	152.9961	7.096091	32.90518
1787	5.53175	3.2168398	152.7874	7.096034	32.90439
1788	5.53787	3.2169020	152.5725	7.095234	32.89921
1789	5.55317	3.2169018	152.3549	7.093323	32.88436
1790	5.57180	3.2167769	152.1371	7.091065	32.86486
1791	5.59144	3.2165024	151.9314	7.088760	32.84269
1792	5.60847	3.2162529	151.7224	7.086767	32.82337
1793	5.62154	3.2159848	151.5107	7.085278	32.80771
1794	5.63070	3.2156419	151.2902	7.084314	32.79503
1795	5.63517	3.2154549	151.0783	7.083851	32.78867
1796	5.63980	3.2152118	150.8695	7.083399	32.78153
1797	5.64659	3.2147506	150.6581	7.082791	32.76982
1798	5.65383	3.2144763	150.4613	7.082030	32.75978
1799	5.66204	3.2141647	150.2830	7.081170	32.74838
1800	5.66959	3.2137970	150.1166	7.080420	32.73698
1801	5.67462	3.2135851	149.9414	7.079901	32.72979
1802	5.67703	3.2134916	149.7536	7.079646	32.72648
1803	5.67703	3.2141643	149.5571	7.079289	32.73417
1804	5.67507	3.2136784	149.3695	7.079783	32.73068
1805	5.67552	3.2132173	149.1909	7.079964	32.72513
1806	5.67980	3.2128497	149.0188	7.079621	32.71691
1807	5.68439	3.2126628	148.8403	7.079145	32.71045
1808	5.68660	3.2133354	148.6618	7.078514	32.71597
1809	5.68554	3.2138773	148.4743	7.078357	32.72321
1810	5.68428	3.2144442	148.2808	7.078212	32.73092
1811	5.68423	3.2148117	148.0934	7.078022	32.73521
1812	5.68494	3.2149923	147.8967	7.077835	32.73666
1813	5.68569	3.2148739	147.7032	7.077799	32.73469
1814	5.68615	3.2144439	147.5185	7.077963	32.72949
1815	5.68595	3.2138583	147.3278	7.078291	32.72317
1816	5.68559	3.2136464	147.1373	7.078441	32.72121
1817	5.68489	3.2132788	146.9531	7.078717	32.71784
1818	5.68434	3.2137958	146.7560	7.078510	32.72431
1819	5.68388	3.2143813	146.5684	7.078256	32.73145
1820	5.68358	3.2145308	146.3783	7.078211	32.73352
1821	5.68328	3.2144435	146.1938	7.078290	32.73292
1822	5.68298	3.2142566	146.0060	7.078421	32.73120
1823	5.68267	3.2139513	145.8187	7.078614	32.72814
1824	5.68222	3.2141630	145.6220	7.078555	32.73106
1825	5.68182	3.2143623	145.4466	7.078497	32.73379
1826	5.68162	3.2143187	145.2499	7.078540	32.73359
1827	5.68182	3.2142563	145.0597	7.078543	32.73279
1828	5.68187	3.2141939	144.8719	7.078565	32.73213
1829	5.68157	3.2142250	144.6873	7.078582	32.73286
1830	5.68121	3.2141004	144.4970	7.078687	32.73189
1831	5.68101	3.2139197	144.3031	7.078802	32.73014
1832	5.68061	3.2138573	144.1157	7.078881	32.72992
1833	5.68006	3.2136766	143.9253	7.079040	32.72851
1834	5.67935	3.2136143	143.7375	7.079156	32.72859
1835	5.67890	3.2133962	143.5500	7.079322	32.72666
1836	5.67814	3.2133339	143.3595	7.079444	32.72678
1837	5.67774	3.2131532	143.1658	7.079584	32.72523
1838	5.67729	3.2129351	142.9751	7.079750	32.72330
1839	5.67683	3.2127855	142.7849	7.079881	32.72215
1840	5.67638	3.2129973	142.5881	7.079822	32.72507
1841	5.67598	3.2134208	142.3887	7.079645	32.73034
1842	5.67532	3.2134270	142.1888	7.079719	32.73115
1843	5.67477	3.2129099	141.9893	7.080054	32.72595
1844	5.67427	3.2128476	141.7925	7.080145	32.72583
1845	5.67391	3.2130281	141.5869	7.080089	32.72831
1846	5.67351	3.2122931	141.3965	7.080520	32.72050
1847	5.67321	3.2107921	141.1998	7.081339	32.70395
1848	5.67366	3.2103001	141.0063	7.081536	32.69805
1849	5.67462	3.2102440	140.8128	7.081442	32.69659
1850	5.67527	3.2102440	140.6189	7.081356	32.69605
1851	5.67593	3.2106362	140.4222	7.081065	32.69994
1852	5.67759	3.2107918	140.2286	7.080772	32.70018
1853	5.67965	3.2109474	140.0351	7.080430	32.70003
1854	5.68061	3.2109473	139.8385	7.080306	32.69920
1855	5.68051	3.2106110	139.6512	7.080491	32.69559
1856	5.68066	3.2108662	139.4453	7.080334	32.69843
1857	5.68091	3.2109783	139.2336	7.080239	32.69955
1858	5.68116	3.2105485	139.0248	7.080428	32.69456
1859	5.68182	3.2101811	138.8341	7.080534	32.68987
1860	5.68434	3.2097202	138.6557	7.080459	32.68232
1861	5.69113	3.2096578	138.4651	7.079642	32.67513
1862	5.69748	3.2093837	138.2717	7.078992	32.66598
1863	5.70478	3.2094147	138.0813	7.078063	32.65936
1864	5.71677	3.2093834	137.9028	7.076585	32.64749
1865	5.72972	3.2092587	137.7029	7.075036	32.63365
1866	5.74076	3.2091402	137.5183	7.073722	32.62174
1867	5.74833	3.2089844	137.3248	7.072859	32.61277
1868	5.75544	3.2088287	137.1311	7.072053	32.60424
1869	5.76174	3.2087289	136.9439	7.071318	32.59713
1870	5.76754	3.2086790	136.7591	7.070619	32.59106
1871	5.77314	3.2085232	136.5718	7.070001	32.58399
1872	5.77784	3.2084298	136.3751	7.069463	32.57851
1873	5.78228	3.2085230	136.1903	7.068859	32.57537
1874	5.78879	3.2083424	136.0090	7.068140	32.56715
1875	5.79414	3.2082489	135.8183	7.067521	32.56103
1876	5.79596	3.2079126	135.6157	7.067465	32.55560
1877	5.79687	3.2078814	135.4309	7.067365	32.55446
1878	5.79904	3.2078502	135.2405	7.067107	32.55211
1879	5.80020	3.2077879	135.0470	7.066991	32.55039
1880	5.79878	3.2076073	134.8502	7.067256	32.54982
1881	5.79687	3.2073023	134.6566	7.067649	32.54833
1882	5.79626	3.2071155	134.4662	7.067817	32.54691
1883	5.79722	3.2070221	134.2759	7.067742	32.54503
1884	5.79747	3.2069349	134.0848	7.067752	32.54390
1885	5.79697	3.2066547	133.8975	7.067956	32.54132
1886	5.79661	3.2065986	133.6979	7.068024	32.54113
1887	5.79782	3.2068102	133.5104	7.067760	32.54244
1888	5.80030	3.2069906	133.3196	7.067354	32.54218
1889	5.80398	3.2069656	133.1290	7.066905	32.53844
1890	5.80863	3.2071460	132.9474	7.066231	32.53608
1891	5.81388	3.2071770	132.7629	7.065559	32.53147
1892	5.81959	3.2069653	132.5694	7.064956	32.52369
1893	5.82707	3.2068718	132.3727	7.064073	32.51554
1894	5.83439	3.2068405	132.1882	7.063176	32.50823
1895	5.84076	3.2071143	132.0067	7.062240	32.50528
1896	5.84702	3.2070830	131.8225	7.061475	32.49899
1897	5.85178	3.2070207	131.6346	7.060914	32.49382
1898	5.85531	3.2069334	131.4437	7.060517	32.48953
1899	5.85921	3.2067777	131.2684	7.060111	32.48413
1900	5.86447	3.2065660	131.0837	7.059564	32.47680
1901	5.87028	3.2062609	130.8993	7.058998	32.46788
1902	5.87584	3.2062297	130.7150	7.058320	32.46228
1903	5.88480	3.2064411	130.5303	7.057097	32.45615
1904	5.89426	3.2063165	130.3459	7.055985	32.44577
1905	5.89795	3.2061670	130.1641	7.055601	32.44065
1906	5.89684	3.2059492	129.9709	7.055847	32.43936
1907	5.89451	3.2057873	129.7864	7.056215	32.43987
1908	5.89380	3.2056441	129.5987	7.056373	32.43904
1909	5.89380	3.2055818	129.4143	7.056401	32.43843
1910	5.89401	3.2064406	129.2024	7.055926	32.44797
1911	5.89132	3.2072373	128.9934	7.055841	32.45957
1912	5.86861	3.2069014	128.8000	7.058825	32.47769
1913	5.84460	3.2061982	128.6333	7.062163	32.49295
1914	5.83439	3.2064721	128.4490	7.063283	32.50593
1915	5.82838	3.2068394	128.2582	7.063834	32.51593
1916	5.82252	3.2068083	128.0712	7.064573	32.52131
1917	5.82136	3.2064099	127.8892	7.064920	32.51804
1918	5.82449	3.2058932	127.7018	7.064795	32.50931
1919	5.82707	3.2059491	127.5112	7.064442	32.50756
1920	5.82671	3.2058868	127.3205	7.064514	32.50729
1921	5.82530	3.2054325	127.1392	7.064922	32.50364
1922	5.82479	3.2051275	126.9574	7.065139	32.50078
1923	5.82535	3.2051586	126.7730	7.065050	32.50069
1924	5.82535	3.2053078	126.5887	7.064968	32.50246
1925	5.82444	3.2051273	126.4006	7.065170	32.50139
1926	5.82383	3.2052144	126.2162	7.065196	32.50305
1927	5.82312	3.2058305	126.0285	7.064959	32.51074
1928	5.82186	3.2063781	125.8413	7.064827	32.51820
1929	5.82004	3.2069320	125.6504	7.064760	32.52627
1930	5.81782	3.2069320	125.4569	7.065032	32.52850
1931	5.81565	3.2061664	125.2753	7.065695	32.52208
1932	5.81464	3.2055315	125.1027	7.066147	32.51600
1933	5.81454	3.2059485	124.9274	7.065939	32.52087
1934	5.81398	3.2073302	124.7401	7.065285	32.53702
1935	5.81262	3.2079090	124.5553	7.065149	32.54493
1936	5.80989	3.2080335	124.3709	7.065418	32.54905
1937	5.80237	3.2079402	124.1803	7.066396	32.55534
1938	5.79136	3.2080025	123.9957	7.067725	32.56674
1939	5.78041	3.2078469	123.8082	7.069161	32.57564
1940	5.77153	3.2078158	123.6177	7.070275	32.58395
1941	5.76406	3.2079403	123.4389	7.071133	32.59265
1942	5.75619	3.2082454	123.2422	7.071947	32.60378
1943	5.74586	3.2082454	123.0486	7.073226	32.61386
1944	5.73628	3.2080898	122.8704	7.074494	32.62145
1945	5.72882	3.2077226	122.6766	7.075608	32.62462
1946	5.72030	3.2075110	122.4831	7.076773	32.63057
1947	5.71118	3.2075110	122.2923	7.077902	32.63949
1948	5.70322	3.2076666	122.0924	7.078806	32.64904
1949	5.69733	3.2081833	121.9051	7.079264	32.66067
1950	5.69229	3.2084012	121.7054	7.079771	32.66810
1951	5.68786	3.2087063	121.5176	7.080158	32.67593
1952	5.68428	3.2091047	121.3119	7.080390	32.68399
1953	5.68091	3.2093786	121.1152	7.080661	32.69045
1954	5.67819	3.2095280	120.9187	7.080916	32.69487
1955	5.67608	3.2096836	120.7188	7.081093	32.69878
1956	5.67396	3.2098704	120.5253	7.081254	32.70303
1957	5.67160	3.2102066	120.3286	7.081367	32.70922
1958	5.66918	3.2104743	120.1321	7.081523	32.71469
1959	5.66717	3.2106299	119.9414	7.081687	32.71849
1960	5.66531	3.2106299	119.7357	7.081914	32.72040
1961	5.66355	3.2108478	119.5420	7.082014	32.72467
1962	5.66309	3.2110595	119.3484	7.081955	32.72759
1963	5.66339	3.2111840	119.1547	7.081848	32.72880
1964	5.66370	3.2111839	118.9521	7.081806	32.72861
1965	5.66350	3.2111216	118.7463	7.081859	32.72820
1966	5.66229	3.2113706	118.5465	7.081874	32.73229
1967	5.66209	3.2113394	118.3560	7.081911	32.73222
1968	5.66214	3.2115511	118.1655	7.081789	32.73466
1969	5.66249	3.2115822	117.9625	7.081724	32.73477
1970	5.66309	3.2115198	117.7690	7.081678	32.73358
1971	5.66380	3.2115821	117.5781	7.081553	32.73369
1972	5.66430	3.2118249	117.3756	7.081359	32.73604
1973	5.66495	3.2118622	117.1848	7.081253	32.73592
1974	5.66566	3.2119182	116.9915	7.081132	32.73597
1975	5.66591	3.2119492	116.7856	7.081080	32.73617
1976	5.66631	3.2120115	116.5858	7.080992	32.73659
1977	5.66677	3.2122231	116.3920	7.080821	32.73863
1978	5.66692	3.2124411	116.1894	7.080683	32.74105
1979	5.66682	3.2123787	115.9865	7.080723	32.74054
1980	5.66702	3.2123475	115.7808	7.080710	32.74010
1981	5.66757	3.2122852	115.5812	7.080669	32.73895
1982	5.66818	3.2123785	115.3845	7.080541	32.73952
1983	5.66893	3.2120421	115.1818	7.080619	32.73509
1984	5.66938	3.2115812	114.9761	7.080799	32.72954
1985	5.67019	3.2113382	114.7764	7.080822	32.72612
1986	5.67266	3.2112136	114.5737	7.080576	32.72241
1987	5.68524	3.2110515	114.3708	7.079092	32.70847
1988	5.72468	3.2107521	114.1711	7.074344	32.66696
1989	5.78450	3.2106020	113.9746	7.066995	32.60754
1990	5.83338	3.2106014	113.7781	7.060931	32.56048
1991	5.86790	3.2103830	113.5720	7.056763	32.52490
1992	5.90600	3.2102331	113.3847	7.052122	32.48671
1993	5.94236	3.2098902	113.1789	7.047798	32.44809
1994	5.96480	3.2088501	112.9730	7.045555	32.41506
1995	5.98447	3.2079347	112.7763	7.043592	32.38610
1996	6.01318	3.2074426	112.5735	7.040293	32.35328
1997	6.04603	3.2066144	112.3709	7.036659	32.31281
1998	6.07839	3.2049025	112.1652	7.033538	32.26301
1999	6.11209	3.2035269	111.9654	7.030079	32.21577
2000	6.14242	3.2029479	111.7593	7.026630	32.18068
2001	6.16120	3.2023940	111.5506	7.024593	32.15683
2002	6.17185	3.2027049	111.3479	7.023118	32.15032
2003	6.18682	3.2012366	111.1483	7.022016	32.11993
2004	6.20298	3.1994078	110.9486	7.020953	32.08446
2005	6.21379	3.1981889	110.7427	7.020237	32.06083
2006	6.22036	3.1976975	110.5370	7.019672	32.04927
2007	6.22801	3.1966032	110.3373	7.019281	32.03002
2008	6.23959	3.1956581	110.1374	7.018330	32.00873
2009	6.24852	3.1948313	109.9318	7.017645	31.99126
2010	6.25567	3.1949865	109.7292	7.016682	31.98637
2011	6.26485	3.1935880	109.5292	7.016255	31.96233
2012	6.27246	3.1932834	109.3267	7.015468	31.95191
2013	6.27772	3.1938301	109.1211	7.014538	31.95313
2014	6.28426	3.1937678	108.9303	7.013760	31.94640
2015	6.29120	3.1937056	108.7272	7.012932	31.93930
2016	6.29411	3.1971179	108.5128	7.010840	31.97446
2017	6.28834	3.1921209	108.3069	7.014079	31.92462
2018	6.29023	3.1921208	108.1164	7.013842	31.92294
2019	6.29657	3.1933821	107.9225	7.012418	31.93107
2020	6.29626	3.1943142	107.7136	7.011979	31.94178
2021	6.29294	3.1908159	107.5109	7.014156	31.90624
2022	6.29442	3.1898716	107.3143	7.014448	31.89449
2023	6.29927	3.1907225	107.1176	7.013414	31.89946
2024	6.30545	3.1906603	106.9208	7.012680	31.89308
2025	6.31138	3.1898712	106.7149	7.012345	31.87890
2026	6.31634	3.1898401	106.5213	7.011746	31.87401
2027	6.32242	3.1893244	106.3187	7.011253	31.86271
2028	6.32728	3.1893678	106.1309	7.010629	31.85874
2029	6.33311	3.1893242	105.9253	7.009928	31.85291
2030	6.33986	3.1889576	105.7258	7.009278	31.84264
2031	6.34385	3.1883240	105.5228	7.009103	31.83200
2032	6.34640	3.1879575	105.3232	7.008969	31.82566
2033	6.34952	3.1882927	105.1235	7.008411	31.82655
2034	6.35469	3.1880753	104.9268	7.007880	31.81942
2035	6.35955	3.1878640	104.7270	7.007384	31.81264
2036	6.36129	3.1869573	104.5242	7.007623	31.80109
2037	6.36027	3.1865909	104.3245	7.007930	31.79809
2038	6.36073	3.1865598	104.1276	7.007885	31.79741
2039	6.36216	3.1862865	103.9282	7.007842	31.79315
2040	6.36349	3.1862864	103.7282	7.007674	31.79201
2041	6.36579	3.1858331	103.5255	7.007615	31.78495
2042	6.36835	3.1858020	103.3226	7.007311	31.78232
2043	6.37132	3.1856466	103.1229	7.007019	31.77793
2044	6.37408	3.1860315	102.9234	7.006481	31.77970
2045	6.37761	3.1861928	102.7295	7.005960	31.77828
2046	6.38043	3.1856153	102.5238	7.005900	31.76938
2047	6.38099	3.1850131	102.3241	7.006131	31.76230
2048	6.38145	3.1857704	102.1243	7.005687	31.77033
2049	6.38345	3.1858324	101.9245	7.005406	31.76925
2050	6.38616	3.1858882	101.7280	7.005040	31.76743
2051	6.39010	3.1857391	101.5311	7.004625	31.76221
2052	6.39384	3.1854348	101.3311	7.004314	31.75546
2053	6.39671	3.1852236	101.1256	7.004063	31.75056
2054	6.39937	3.1850683	100.9349	7.003810	31.74646
2055	6.40193	3.1847640	100.7322	7.003643	31.74081
2056	6.40245	3.1842177	100.5324	7.003851	31.73440
2057	6.40091	3.1836714	100.3297	7.004311	31.72990
2058	6.39968	3.1841307	100.1237	7.004227	31.73621
2059	6.40117	3.1843913	99.9241	7.003908	31.73780
2060	6.40388	3.1843726	99.7243	7.003579	31.73516
2061	6.40629	3.1845525	99.5217	7.003188	31.73500
2062	6.40885	3.1844655	99.3126	7.002912	31.73176
2063	6.41151	3.1848876	99.1223	7.002367	31.73403
2064	6.41412	3.1848254	98.9164	7.002073	31.73101
2065	6.41602	3.1843722	98.7195	7.002064	31.72434
2066	6.41766	3.1841983	98.5198	7.001945	31.72099
2067	6.41981	3.1845831	98.3174	7.001482	31.72333
2068	6.42278	3.1843098	98.1081	7.001249	31.71766
2069	6.42258	3.1840677	97.9084	7.001392	31.71527
2070	6.42381	3.1844649	97.7059	7.001037	31.71861
2071	6.42709	3.1840055	97.4969	7.000860	31.71059
2072	6.43001	3.1845206	97.2910	7.000237	31.71366
2073	6.43431	3.1847750	97.0944	6.999575	31.71255
2074	6.43985	3.1843403	96.8917	6.999108	31.70272
2075	6.44544	3.1838560	96.6860	6.998660	31.69229
2076	6.45041	3.1844643	96.4798	6.997738	31.69447
2077	6.45697	3.1844331	96.2803	6.996943	31.68813
2078	6.46195	3.1839426	96.0714	6.996573	31.67821
2079	6.46703	3.1833962	95.8687	6.996219	31.66758
2080	6.47123	3.1832782	95.6630	6.995756	31.66248
2081	6.47534	3.1830174	95.4600	6.995378	31.65590
2082	6.47934	3.1831849	95.2605	6.994798	31.65413
2083	6.48303	3.1834579	95.0546	6.994202	31.65381
2084	6.48781	3.1833399	94.8517	6.993671	31.64818
2085	6.49299	3.1827936	94.6550	6.993303	31.63746
2086	6.49704	3.1824273	94.4463	6.992984	31.62978
2087	6.50002	3.1821231	94.2495	6.992767	31.62377
2088	6.50197	3.1816390	94.0407	6.992765	31.61673
2089	6.50346	3.1817320	93.8349	6.992531	31.61647
2090	6.50515	3.1822470	93.6231	6.992060	31.62067
2091	6.50752	3.1821228	93.4202	6.991828	31.61722
2092	6.51034	3.1815455	93.2083	6.991766	31.60835
2093	6.51337	3.1814275	93.0022	6.991448	31.60435
2094	6.51625	3.1811544	92.7996	6.991227	31.59878
2095	6.51892	3.1808999	92.5879	6.991022	31.59362
2096	6.52277	3.1809743	92.3880	6.990507	31.59097
2097	6.52719	3.1807322	92.1760	6.990081	31.58433
2098	6.53130	3.1805459	91.9704	6.989665	31.57858
2099	6.53458	3.1802170	91.7645	6.989421	31.57202
2100	6.53710	3.1800928	91.5555	6.989170	31.56843
2101	6.54101	3.1800617	91.3470	6.988701	31.56458
2102	6.54543	3.1796521	91.1440	6.988359	31.55610
2103	6.54712	3.1796706	90.9322	6.988137	31.55484
2104	6.54486	3.1788517	90.7296	6.988820	31.54802
2105	6.54173	3.1783058	90.5234	6.989474	31.54501
2106	6.54121	3.1785166	90.3179	6.989427	31.54790
2107	6.54234	3.1783056	90.1089	6.989389	31.54463
2108	6.54347	3.1780326	89.9002	6.989382	31.54069
2109	6.54527	3.1778279	89.6914	6.989259	31.53688
2110	6.54728	3.1775797	89.4826	6.989133	31.53240
2111	6.54774	3.1771268	89.2735	6.989298	31.52710
2112	6.54671	3.1766988	89.0649	6.989634	31.52344
2113	6.54543	3.1763391	88.8621	6.989967	31.52077
2114	6.54471	3.1761530	88.6502	6.990144	31.51948
2115	6.54486	3.1762645	88.4351	6.990065	31.52067
2116	6.54609	3.1762459	88.2201	6.989918	31.51943
2117	6.54728	3.1759729	88.0084	6.989905	31.51544
2118	6.54656	3.1763387	87.7875	6.989806	31.52022
2119	6.54368	3.1769403	87.5664	6.989854	31.52959
2120	6.53885	3.1763387	87.3695	6.990744	31.52752
2121	6.53433	3.1763697	87.1792	6.991281	31.53212
2122	6.53515	3.1759107	86.9852	6.991405	31.52641
2123	6.53243	3.1763386	86.7886	6.991522	31.53372
2124	6.53525	3.1772130	86.5948	6.990732	31.54081
2125	6.54620	3.1769399	86.4102	6.989520	31.52781
2126	6.55987	3.1765180	86.2105	6.988046	31.51067
2127	6.56712	3.1760961	86.0197	6.987362	31.49945
2128	6.57015	3.1757550	85.8231	6.987156	31.49300
2129	6.57380	3.1755192	85.6263	6.986821	31.48714
2130	6.57869	3.1755501	85.4446	6.986201	31.48307
2131	6.58574	3.1754012	85.2510	6.985406	31.47505
2132	6.59093	3.1750662	85.0664	6.984931	31.46668
2133	6.59247	3.1747623	84.8694	6.984889	31.46202
2134	6.59191	3.1743407	84.6789	6.985165	31.45800
2135	6.58928	3.1739996	84.4943	6.985653	31.45676
2136	6.58635	3.1758846	84.2972	6.985068	31.48023
2137	6.58435	3.1798791	84.1006	6.983317	31.52601
2138	6.57540	3.1813310	83.9190	6.983686	31.55028
2139	6.55149	3.1841241	83.7221	6.985220	31.60313
2140	6.51851	3.1882223	83.5286	6.987211	31.67881
2141	6.48103	3.1901977	83.3412	6.990814	31.73541
2142	6.43272	3.1911238	83.1351	6.996275	31.79066
2143	6.38898	3.1918387	82.9473	7.001285	31.83943
2144	6.35147	3.1924790	82.7476	7.005570	31.88165
2145	6.32360	3.1935170	82.5598	7.008469	31.91932
2146	6.30356	3.1952822	82.3662	7.010036	31.95774
2147	6.28778	3.1969856	82.1785	7.011110	31.99153
2148	6.27358	3.1985711	81.9850	7.012049	32.02254
2149	6.26235	3.1997030	81.7912	7.012852	32.04576
2150	6.25531	3.1987577	81.5944	7.014194	32.04200
2151	6.25276	3.1998087	81.4128	7.013970	32.05615
2152	6.25163	3.2012267	81.2131	7.013383	32.07304
2153	6.25097	3.2023277	81.0194	7.012902	32.08598
2154	6.25092	3.2030928	80.8254	7.012515	32.09461
2155	6.24745	3.2032110	80.6317	7.012877	32.09929
2156	6.23929	3.2041008	80.4321	7.013424	32.11696
2157	6.23164	3.2039452	80.2382	7.014440	32.12256
2158	6.22710	3.2001879	80.0417	7.016905	32.08521
2159	6.22801	3.1983906	79.8445	7.017702	32.06448
2160	6.23005	3.1990310	79.6540	7.017121	32.06976
2161	6.22990	3.2008905	79.4603	7.016190	32.09064
2162	6.22766	3.2029930	79.2664	7.015392	32.11620
2163	6.22551	3.2038516	79.0758	7.015215	32.12786
2164	6.22398	3.2048036	78.8821	7.014915	32.13997
2165	6.22317	3.2057806	78.6945	7.014514	32.15168
2166	6.22286	3.2067265	78.5096	7.014066	32.16257
2167	6.22342	3.2080150	78.3163	7.013337	32.17645
2168	6.21781	3.2096337	78.1436	7.013199	32.19983
2169	6.20823	3.2098517	77.9591	7.014262	32.21142
2170	6.19681	3.2102440	77.7744	7.015461	32.22669
2171	6.18061	3.2109229	77.5867	7.017102	32.24970
2172	6.16563	3.2093912	77.3898	7.019721	32.24696
2173	6.14842	3.2084387	77.1993	7.022320	32.25279
2174	6.13443	3.2093603	77.0266	7.023568	32.27644
2175	6.12634	3.2104562	76.8420	7.023999	32.29643
2176	6.12456	3.2100638	76.6631	7.024415	32.29384
2177	6.12405	3.2103378	76.4910	7.024334	32.29746
2178	6.12201	3.2108608	76.3153	7.024313	32.30531
2179	6.12201	3.2121437	76.1396	7.023653	32.31969
2180	6.12334	3.2129408	75.9640	7.023079	32.32741
2181	6.12507	3.2135263	75.7792	7.022562	32.33237
2182	6.12603	3.2123303	75.5917	7.023051	32.31821
2183	6.12756	3.2113524	75.4132	7.023359	32.30595
2184	6.12863	3.2109849	75.2344	7.023412	32.30092
2185	6.13046	3.2118069	75.0466	7.022762	32.30843
2186	6.13341	3.2126975	74.8530	7.021939	32.31564
2187	6.13646	3.2133078	74.6625	7.021247	32.31963
2188	6.13875	3.2151206	74.4658	7.020035	32.33774
2189	6.13982	3.2162857	74.2749	7.019304	32.34980
2190	6.14038	3.2167281	74.0810	7.019005	32.35429
2191	6.14023	3.2193582	73.8812	7.017676	32.38384
2192	6.13631	3.2202496	73.6876	7.017697	32.39761
2193	6.12710	3.2214779	73.4848	7.018195	32.42019
2194	6.11591	3.2222449	73.2849	7.019173	32.43954
2195	6.10360	3.2209231	73.0879	7.021356	32.43665
2196	6.08713	3.2205553	72.8794	7.023564	32.44840
2197	6.07020	3.2205555	72.6826	7.025639	32.46469
2198	6.05578	3.2185296	72.4706	7.028448	32.45597
2199	6.04425	3.2180996	72.2678	7.030083	32.46230
2200	6.03983	3.2180061	72.0680	7.030670	32.46559
2201	6.03501	3.2183738	71.8682	7.031070	32.47441
2202	6.02785	3.2190158	71.6625	7.031617	32.48855
2203	6.02628	3.2188038	71.4626	7.031915	32.48779
2204	6.02942	3.2195704	71.2567	7.031129	32.49344
2205	6.03338	3.2190779	71.0539	7.030890	32.48424
2206	6.03714	3.2184669	70.8451	7.030737	32.47391
2207	6.03958	3.2197260	70.6300	7.029785	32.48576
2208	6.04227	3.2215713	70.4150	7.028502	32.50391
2209	6.04516	3.2196635	70.2001	7.029121	32.47992
2210	6.04917	3.2186473	69.9972	7.029144	32.46482
2211	6.05014	3.2188031	69.7823	7.028941	32.46574
2212	6.05283	3.2185287	69.5707	7.028746	32.46020
2213	6.05689	3.2190460	69.3676	7.027976	32.46219
2214	6.05898	3.2195383	69.1467	7.027462	32.46580
2215	6.06197	3.2190769	68.9347	7.027326	32.45788
2216	6.06497	3.2190768	68.7227	7.026952	32.45511
2217	6.06731	3.2195692	68.5049	7.026407	32.45848
2218	6.06919	3.2203047	68.2993	7.025794	32.46500
2219	6.07148	3.2206787	68.0810	7.025317	32.46709
2220	6.07432	3.2213831	67.8812	7.024601	32.47233
2221	6.07696	3.2216574	67.6693	7.024131	32.47297
2222	6.07940	3.2221811	67.4603	7.023558	32.47659
2223	6.08128	3.2221810	67.2422	7.023322	32.47489
2224	6.08255	3.2223680	67.0335	7.023066	32.47586
2225	6.08555	3.2228294	66.8277	7.022456	32.47825
2226	6.08936	3.2231972	66.6247	7.021795	32.47880
2227	6.09282	3.2234091	66.4158	7.021258	32.47796
2228	6.09623	3.2237209	66.2129	7.020675	32.47828
2229	6.09918	3.2242447	65.9981	7.020040	32.48141
2230	6.10243	3.2245502	65.7860	7.019480	32.48180
2231	6.10502	3.2247996	65.5804	7.019029	32.48221
2232	6.10716	3.2247372	65.3589	7.018794	32.47957
2233	6.10858	3.2250115	65.1621	7.018474	32.48137
2234	6.10945	3.2252298	64.9413	7.018252	32.48308
2235	6.11057	3.2243627	64.7416	7.018554	32.47243
2236	6.11118	3.2239323	64.5386	7.018695	32.46715
2237	6.11245	3.2238698	64.3301	7.018566	32.46533
2238	6.12746	3.2239943	64.1268	7.016656	32.45247
2239	6.16344	3.2242434	63.9179	7.012112	32.42097
2240	6.19498	3.2249166	63.7274	7.007901	32.39848
2241	6.20430	3.2258709	63.5123	7.006268	32.40031
2242	6.19584	3.2272247	63.3126	7.006610	32.42355
2243	6.18591	3.2266757	63.1099	7.008101	32.42701
2244	6.17521	3.2261517	62.9041	7.009674	32.43149
2245	6.15866	3.2255966	62.6978	7.011981	32.44121
2246	6.14293	3.2249792	62.4920	7.014219	32.44946
2247	6.12710	3.2245177	62.2923	7.016391	32.45954
2248	6.11326	3.2242121	62.0894	7.018241	32.46947
2249	6.10040	3.2236883	61.8866	7.020083	32.47603
2250	6.08865	3.2225783	61.6775	7.022089	32.47499
2251	6.07722	3.2203960	61.4719	7.024608	32.46167
2252	6.06345	3.2183702	61.2659	7.027335	32.45232
2253	6.05187	3.2230400	61.1418	7.026359	32.51566
2254	6.06284	3.2193550	61.0933	7.026901	32.46399
2255	6.20522	3.2163432	61.0208	7.010951	32.29464
2256	6.34185	3.2152638	60.9055	6.994757	32.15333
2257	6.34518	3.2166470	60.7663	6.993649	32.16558
2258	6.29539	3.2185546	60.6119	6.998771	32.23388
2259	6.26598	3.2174080	60.4545	7.002950	32.24910
2260	6.25036	3.2149593	60.2971	7.006104	32.23678
2261	6.24296	3.2134891	60.1335	7.007754	32.22754
2262	6.23995	3.2128163	59.9579	7.008461	32.22300
2263	6.25026	3.2119878	59.7853	7.007614	32.20412
2264	6.30321	3.2114640	59.6128	7.001384	32.14832
2265	6.39231	3.2104542	59.4375	6.990980	32.05328
2266	6.47503	3.2079442	59.2617	6.982124	31.94805
2267	6.55349	3.2061694	59.0892	6.973426	31.85532
2268	6.61203	3.2044262	58.9165	6.967152	31.78178
2269	6.65550	3.2025281	58.7377	6.962794	31.72072
2270	6.69834	3.2010347	58.5562	6.958312	31.66481
2271	6.73673	3.2017682	58.3897	6.953271	31.63747
2272	6.75202	3.2000513	58.2107	6.952257	31.60468
2273	6.75785	3.1954813	58.0294	6.953802	31.54942
2274	6.78115	3.1879384	57.8569	6.954686	31.44569
2275	6.81424	3.1846907	57.6780	6.952250	31.38005
2276	6.84436	3.1829585	57.5056	6.949428	31.33375
2277	6.86605	3.1858386	57.3206	6.945365	31.34543
2278	6.87299	3.1830512	57.1394	6.945886	31.30883
2279	6.87206	3.1762019	56.9605	6.949362	31.23519
2280	6.88911	3.1719734	56.7909	6.949357	31.17378
2281	6.90564	3.1691596	56.6213	6.948716	31.12828
2282	6.92420	3.1654238	56.4429	6.948278	31.07098
2283	6.94277	3.1662969	56.2702	6.945579	31.06378
2284	6.95881	3.1664144	56.0916	6.943561	31.05066
2285	6.97143	3.1656338	55.9189	6.942400	31.03090
2286	6.97927	3.1655098	55.7402	6.941500	31.02257
2287	6.98836	3.1634908	55.5739	6.941374	30.99257
2288	6.99490	3.1609957	55.3892	6.941791	30.95972
2289	7.00160	3.1599123	55.2073	6.941498	30.94204
2290	7.00877	3.1583155	55.0317	6.941398	30.91838
2291	7.01558	3.1572820	54.8500	6.941068	30.90116
2292	7.02104	3.1569664	54.6712	6.940552	30.89293
2293	7.02619	3.1563909	54.4959	6.940200	30.88216
2294	7.03118	3.1560010	54.3142	6.939777	30.87355
2295	7.03591	3.1552833	54.1356	6.939546	30.86163
2296	7.03898	3.1548936	53.9539	6.939357	30.85474
2297	7.04127	3.1558832	53.7811	6.938592	30.86348
2298	7.04392	3.1554934	53.6025	6.938454	30.85697
2299	7.04616	3.1550418	53.4301	6.938398	30.85016
2300	7.04845	3.1544912	53.2695	6.938383	30.84223
2301	7.05089	3.1536623	53.0879	6.938485	30.83116
2302	7.05313	3.1532974	52.9153	6.938386	30.82529
2303	7.05521	3.1524872	52.7397	6.938523	30.81474
2304	7.05687	3.1526417	52.5702	6.938241	30.81500
2305	7.05849	3.1523015	52.3975	6.938206	30.80996
2306	7.05989	3.1523695	52.2220	6.937998	30.80952
2307	7.06099	3.1519180	52.0525	6.938081	30.80374
2308	7.06187	3.1513491	51.8768	6.938246	30.79688
2309	7.06244	3.1517695	51.6950	6.937968	30.80099
2310	7.06301	3.1516396	51.5195	6.937957	30.79916
2311	7.06317	3.1508420	51.3408	6.938323	30.79047
2312	7.06265	3.1510212	51.1653	6.938296	30.79296
2313	7.06286	3.1506007	50.9926	6.938471	30.78830
2314	7.06296	3.1504956	50.8139	6.938506	30.78715
2315	7.06244	3.1492530	50.6352	6.939171	30.77426
2316	7.06114	3.1495497	50.4505	6.939182	30.77872
2317	7.06156	3.1494012	50.2658	6.939200	30.77682
2318	7.06317	3.1493394	50.0902	6.939029	30.77479
2319	7.06567	3.1491044	49.9085	6.938834	30.77011
2320	7.06874	3.1492836	49.7298	6.938368	30.76939
2321	7.07280	3.1489806	49.5482	6.938016	30.76257
2322	7.07863	3.1490114	49.3694	6.937285	30.75779
2323	7.08430	3.1490731	49.2029	6.936559	30.75347
2324	7.09071	3.1485290	49.0213	6.936038	30.74196
2325	7.09670	3.1478429	48.8426	6.935636	30.72930
2326	7.10019	3.1474225	48.6579	6.935410	30.72173
2327	7.10368	3.1476944	48.4822	6.934849	30.72164
2328	7.10810	3.1478735	48.3038	6.934217	30.71972
2329	7.11238	3.1470329	48.1249	6.934100	30.70692
2330	7.11529	3.1463469	47.9466	6.934073	30.69700
2331	7.11972	3.1455683	47.7677	6.933907	30.68474
2332	7.12525	3.1450306	47.5861	6.933490	30.67411
2333	7.12895	3.1446413	47.4103	6.933223	30.66670
2334	7.13114	3.1443694	47.2375	6.933084	30.66190
2335	7.13406	3.1433254	47.0683	6.933231	30.64812
2336	7.13645	3.1423432	46.8925	6.933410	30.63547
2337	7.13823	3.1417997	46.7172	6.933454	30.62812
2338	7.13979	3.1423678	46.5534	6.932984	30.63293
2339	7.14229	3.1420342	46.3838	6.932837	30.62719
2340	7.14501	3.1412313	46.2173	6.932891	30.61620
2341	7.14761	3.1407989	46.0417	6.932779	30.60931
2342	7.15027	3.1400023	45.8812	6.932837	30.59844
2343	7.15272	3.1402122	45.7055	6.932432	30.59861
2344	7.15507	3.1398231	45.5421	6.932331	30.59241
2345	7.15658	3.1393785	45.3727	6.932358	30.58635
2346	7.15799	3.1395884	45.2030	6.932081	30.58744
2347	7.15961	3.1392302	45.0333	6.932053	30.58223
2348	7.16065	3.1391993	44.8667	6.931937	30.58104
2349	7.16159	3.1396005	44.7003	6.931625	30.58461
2350	7.16305	3.1388719	44.5337	6.931796	30.57554
2351	7.16462	3.1382113	44.3702	6.931921	30.56711
2352	7.16623	3.1380322	44.1913	6.931807	30.56383
2353	7.16785	3.1373285	44.0219	6.931947	30.55489
2354	7.16895	3.1373778	43.8584	6.931786	30.55453
2355	7.16988	3.1371987	43.6858	6.931754	30.55185
2356	7.17098	3.1370197	43.5133	6.931703	30.54903
2357	7.17312	3.1372048	43.3526	6.931349	30.54920
2358	7.17578	3.1366307	43.1859	6.931299	30.54074
2359	7.17735	3.1365689	43.0164	6.931134	30.53877
2360	7.17922	3.1360628	42.8468	6.931146	30.53173
2361	7.18089	3.1359763	42.6714	6.930980	30.52940
2362	7.18236	3.1355257	42.5046	6.931016	30.52333
2363	7.18470	3.1350196	42.3292	6.930970	30.51589
2364	7.18679	3.1345753	42.1504	6.930927	30.50934
2365	7.18851	3.1344024	41.9717	6.930796	30.50604
2366	7.18992	3.1339458	41.7932	6.930841	30.49996
2367	7.19133	3.1335879	41.6204	6.930839	30.49494
2368	7.19259	3.1336495	41.4358	6.930652	30.49458
2369	7.19400	3.1333348	41.2601	6.930628	30.49003
2370	7.19509	3.1329646	41.0936	6.930670	30.48515
2371	7.19608	3.1324895	40.9058	6.930775	30.47924
2372	7.19666	3.1326437	40.7332	6.930626	30.48047
2373	7.19525	3.1318602	40.5516	6.931174	30.47337
2374	7.19253	3.1309658	40.3639	6.931935	30.46622
2375	7.19013	3.1307869	40.1912	6.932311	30.46649
2376	7.18987	3.1311323	40.0033	6.932172	30.47052
2377	7.19050	3.1305216	39.8248	6.932388	30.46347
2378	7.19071	3.1302255	39.6398	6.932502	30.46018
2379	7.19060	3.1305523	39.4614	6.932353	30.46387
2380	7.19102	3.1302809	39.2768	6.932429	30.46067
2381	7.19128	3.1298677	39.1011	6.932594	30.45607
2382	7.19175	3.1296271	38.9193	6.932649	30.45314
2383	7.19212	3.1292139	38.7466	6.932801	30.44845
2384	7.19248	3.1294667	38.5680	6.932630	30.45093
2385	7.19332	3.1295714	38.3922	6.932474	30.45140
2386	7.19337	3.1288561	38.2078	6.932810	30.44374
2387	7.19295	3.1296577	38.0228	6.932469	30.45282
2388	7.19300	3.1295713	37.8230	6.932501	30.45193
2389	7.19274	3.1290902	37.6502	6.932762	30.44706
2390	7.19431	3.1304037	37.4748	6.931931	30.45990
2391	7.19337	3.1309094	37.2900	6.931798	30.46625
2392	7.19295	3.1336790	37.1147	6.930506	30.49651
2393	7.19368	3.1384804	36.9296	6.928091	30.54764
2394	7.19029	3.1442792	36.7480	6.925697	30.61318
2395	7.17792	3.1452121	36.5602	6.926750	30.63428
2396	7.16764	3.1446932	36.3784	6.928251	30.63789
2397	7.16133	3.1388077	36.2028	6.931869	30.58012
2398	7.16159	3.1319209	36.0305	6.935170	30.50575
2399	7.16315	3.1293428	35.8516	6.936224	30.47668
2400	7.16138	3.1285843	35.6699	6.936805	30.47015
2401	7.16665	3.1288247	35.5031	6.936040	30.46817
2402	7.17755	3.1290650	35.3366	6.934586	30.46121
2403	7.18330	3.1282387	35.1611	6.934280	30.44733
2404	7.18669	3.1282879	34.9916	6.933837	30.44495
2405	7.19191	3.1285591	34.8065	6.933064	30.44335
2406	7.19541	3.1279609	34.6402	6.932922	30.43391
2407	7.19697	3.1298970	34.4552	6.931790	30.45345
2408	7.19671	3.1279300	34.2800	6.932770	30.43259
2409	7.19812	3.1277511	34.1040	6.932680	30.42950
2410	7.20146	3.1267030	33.9254	6.932775	30.41536
2411	7.20444	3.1266536	33.7558	6.932431	30.41229
2412	7.20872	3.1263885	33.5801	6.932031	30.40574
2413	7.21232	3.1262096	33.3955	6.931673	30.40073
2414	7.21504	3.1259506	33.2166	6.931463	30.39564
2415	7.21744	3.1261786	33.0441	6.931055	30.39606
2416	7.22079	3.1261169	32.8746	6.930672	30.39253
2417	7.22439	3.1261045	32.6990	6.930234	30.38931
2418	7.22956	3.1258825	32.5232	6.929705	30.38245
2419	7.23380	3.1259070	32.3476	6.929172	30.37908
2420	7.23819	3.1257035	32.1718	6.928730	30.37311
2421	7.24211	3.1254137	31.9995	6.928387	30.36663
2422	7.24524	3.1249268	31.8236	6.928235	30.35872
2423	7.24765	3.1251054	31.6388	6.927851	30.35861
2424	7.25110	3.1247910	31.4633	6.927577	30.35229
2425	7.25397	3.1244211	31.2752	6.927400	30.34587
2426	7.25653	3.1243964	31.0937	6.927095	30.34344
2427	7.25904	3.1245751	30.9119	6.926698	30.34324
2428	7.26187	3.1242237	30.7335	6.926519	30.33707
2429	7.26375	3.1241250	30.5486	6.926333	30.33444
2430	7.26610	3.1242728	30.3729	6.925970	30.33404
2431	7.26830	3.1237859	30.1882	6.925933	30.32697
2432	7.26997	3.1236503	30.0065	6.925790	30.32413
2433	7.27170	3.1230587	29.8306	6.925860	30.31634
2434	7.27327	3.1230278	29.6490	6.925680	30.31472
2435	7.27510	3.1225286	29.4766	6.925693	30.30783
2436	7.27599	3.1219309	29.2887	6.925868	30.30072
2437	7.27672	3.1217522	29.0949	6.925861	30.29825
2438	7.27745	3.1222204	28.9192	6.925542	30.30271
2439	7.27635	3.1230275	28.7437	6.925284	30.31241
2440	7.27285	3.1270644	28.5587	6.923765	30.35891
2441	7.27149	3.1318249	28.3774	6.921634	30.41131
2442	7.26919	3.1329538	28.2012	6.921367	30.42554
2443	7.26249	3.1297711	28.0225	6.923714	30.39732
2444	7.25831	3.1342679	27.8320	6.922054	30.44940
2445	7.25648	3.1275143	27.6504	6.925529	30.37852
2446	7.25727	3.1277362	27.4625	6.925323	30.38030
2447	7.25721	3.1270087	27.2807	6.925676	30.37261
2448	7.25507	3.1232922	27.0989	6.927727	30.33465
2449	7.25355	3.1221831	26.9233	6.928443	30.32414
2450	7.25256	3.1212774	26.7414	6.928998	30.31536
2451	7.25277	3.1215114	26.5570	6.928856	30.31778
2452	7.25465	3.1212156	26.3721	6.928764	30.31303
2453	7.25575	3.1203717	26.1844	6.929033	30.30309
2454	7.25847	3.1222567	25.9996	6.927788	30.32103
2455	7.26014	3.1212770	25.8239	6.928052	30.30912
2456	7.26061	3.1197740	25.6421	6.928716	30.29265
2457	7.26265	3.1197616	25.4606	6.928468	30.29081
2458	7.26521	3.1204144	25.2788	6.927837	30.29566
2459	7.26642	3.1200571	25.1031	6.927858	30.29085
2460	7.26736	3.1234085	24.9274	6.926124	30.32609
2461	7.26689	3.1271866	24.7427	6.924358	30.36716
2462	7.26600	3.1275996	24.5641	6.924264	30.37246
2463	7.26589	3.1306889	24.3792	6.922784	30.40582
2464	7.26490	3.1318237	24.2066	6.922355	30.41896
2465	7.26218	3.1346554	24.0250	6.921319	30.45186
2466	7.25732	3.1364450	23.8432	6.921046	30.47546
2467	7.25125	3.1361303	23.6492	6.921933	30.47751
2468	7.24707	3.1386857	23.4737	6.921207	30.50875
2469	7.24268	3.1375807	23.2918	6.922272	30.50082
2470	7.23981	3.1419706	23.1131	6.920501	30.55065
2471	7.23599	3.1444845	22.9284	6.919749	30.58115
2472	7.23087	3.1502010	22.7407	6.917610	30.64729
2473	7.22209	3.1562307	22.5560	6.915764	30.72009
2474	7.20245	3.1594175	22.3802	6.916607	30.77197
2475	7.16529	3.1597211	22.1894	6.920973	30.80846
2476	7.12353	3.1593625	22.0136	6.926224	30.84196
2477	7.09623	3.1607121	21.8319	6.928888	30.88105
2478	7.07488	3.1617955	21.6504	6.930957	30.91198
2479	7.05594	3.1636655	21.4684	6.932349	30.94929
2480	7.04293	3.1657402	21.2896	6.932919	30.98353
2481	7.03368	3.1660685	21.1109	6.933882	30.99549
2482	7.02952	3.1634551	20.9266	6.935659	30.97100
2483	7.02900	3.1633931	20.7447	6.935749	30.97088
2484	7.02941	3.1655914	20.5660	6.934623	30.99441
2485	7.02874	3.1702069	20.3904	6.932451	31.04511
2486	7.02770	3.1736779	20.2115	6.930881	31.08376
2487	7.02785	3.1752155	20.0299	6.930108	31.10037
2488	7.02744	3.1755875	19.8421	6.929974	31.10486
2489	7.02463	3.1757053	19.6633	6.930254	31.10876
2490	7.01953	3.1756432	19.4907	6.930900	31.11277
2491	7.01309	3.1765859	19.3028	6.931219	31.12890
2492	7.00633	3.1751596	19.1210	6.932733	31.11962
2493	7.00202	3.1724689	18.9426	6.934568	31.09441
2494	7.00129	3.1707520	18.7606	6.935491	31.07652
2495	7.00134	3.1689673	18.5729	6.936352	31.05720
2496	7.00254	3.1623648	18.3914	6.939428	30.98461
2497	7.00659	3.1595111	18.2124	6.940324	30.95011
2498	7.03045	3.1557797	18.0306	6.939229	30.88834
2499	7.09571	3.1528596	17.8490	6.932686	30.79844
2500	7.18643	3.1510098	17.6611	6.922526	30.69774
2501	7.28111	3.1444207	17.4825	6.914178	30.54304
2502	7.38153	3.1419365	17.3009	6.903161	30.42806
2503	7.44309	3.1351143	17.1251	6.898941	30.30121
2504	7.50607	3.1326272	16.9343	6.892477	30.21984
2505	7.55929	3.1318493	16.7494	6.886388	30.16538
2506	7.60804	3.1303315	16.5678	6.881196	30.10705
2507	7.63774	3.1297083	16.3800	6.877890	30.07482
2508	7.66467	3.1294366	16.2045	6.874756	30.04876
2509	7.68014	3.1282772	16.0197	6.873427	30.02318
2510	7.68659	3.1263166	15.8407	6.873567	29.99690
2511	7.69885	3.1254042	15.6590	6.872510	29.97674
2512	7.71767	3.1256628	15.4744	6.870108	29.96338
2513	7.72381	3.1258414	15.2865	6.869278	29.96008
2514	7.72418	3.1297995	15.1108	6.867369	30.00180
2515	7.71889	3.1366784	14.9290	6.864770	30.07938
2516	7.71810	3.1366783	14.7564	6.864863	30.08014
2517	7.71672	3.1376288	14.5747	6.864578	30.09149
2518	7.69742	3.1416051	14.3958	6.865031	30.15044
2519	7.67898	3.1418708	14.2083	6.867127	30.16931
2520	7.66461	3.1442674	14.0326	6.867727	30.20731
2521	7.64793	3.1422601	13.8446	6.870683	30.20053
2522	7.63500	3.1452623	13.6660	6.870823	30.24377
2523	7.62218	3.1475548	13.4813	6.871283	30.27939
2524	7.60836	3.1451018	13.3024	6.874107	30.26538
2525	7.60161	3.1451327	13.1147	6.874904	30.27167
2526	7.59586	3.1445952	12.9329	6.875849	30.27103
2527	7.59069	3.1465909	12.7542	6.875525	30.29686
2528	7.58516	3.1455220	12.5693	6.876696	30.29038
2529	7.58020	3.1427668	12.3909	6.878596	30.26542
2530	7.57894	3.1456702	12.2089	6.877370	30.29754
2531	7.57551	3.1457690	12.0332	6.877733	30.30165
2532	7.57119	3.1433103	11.8516	6.879417	30.27930
2533	7.57035	3.1433102	11.6729	6.879515	30.28011
2534	7.57182	3.1421737	11.4940	6.879872	30.26679
2535	7.57383	3.1408150	11.3217	6.880271	30.25065
2536	7.57994	3.1380489	11.1428	6.880838	30.21595
2537	7.59212	3.1383203	10.9579	6.879233	30.20834
2538	7.60324	3.1370918	10.7791	6.878465	30.18568
2539	7.60894	3.1365609	10.5975	6.878024	30.17517
2540	7.61305	3.1326241	10.4219	6.879385	30.12980
2541	7.61985	3.1286645	10.2523	6.880430	30.08187
2542	7.62476	3.1231970	10.0766	6.882417	30.01958
2543	7.63521	3.1195129	9.8948	6.882887	29.97150
2544	7.65949	3.1197528	9.7189	6.879826	29.95323
2545	7.67396	3.1169691	9.5433	6.879381	29.91132
2546	7.68331	3.1159162	9.3555	6.878739	29.89220
2547	7.69135	3.1150726	9.1858	6.878160	29.87643
2548	7.70313	3.1153125	9.0071	6.876614	29.86895
2549	7.71223	3.1152508	8.8285	6.875537	29.86058
2550	7.71408	3.1133858	8.6436	6.876187	29.83931
2551	7.71529	3.1108443	8.4680	6.877232	29.81141
2552	7.72412	3.1081252	8.2954	6.877437	29.77513
2553	7.73306	3.1017371	8.1256	6.879352	29.69994
2554	7.74227	3.0962507	7.9591	6.880810	29.63411
2555	7.75164	3.0849578	7.8017	6.884974	29.50680
2556	7.76911	3.0799913	7.6470	6.885174	29.43962
2557	7.78838	3.0796662	7.4987	6.882974	29.41999
2558	7.80407	3.0779868	7.3472	6.881847	29.38911
2559	7.80995	3.0817071	7.1865	6.879384	29.42348
2560	7.80534	3.0791081	7.0412	6.881160	29.40000
2561	7.80444	3.0751254	6.8899	6.883134	29.35880
2562	7.81636	3.0753152	6.7473	6.881588	29.35084
2563	7.82575	3.0772204	6.5957	6.879549	29.36310
2564	7.82707	3.0730671	6.4506	6.881329	29.31826
2565	7.82829	3.0722771	6.3021	6.881547	29.30897
2566	7.82999	3.0698035	6.1597	6.882496	29.28153
2567	7.83211	3.0695708	6.0141	6.882343	29.27736
2568	7.83540	3.0662046	5.8809	6.883515	29.23919
2569	7.84304	3.0634942	5.7477	6.883848	29.20430
2570	7.85105	3.0620078	5.6234	6.883562	29.18200
2571	7.85736	3.0617814	5.5024	6.882894	29.17439
2572	7.86081	3.0602098	5.3720	6.883205	29.15503
2573	7.86400	3.0587607	5.2539	6.883491	29.13717
2574	7.87058	3.0591396	5.1358	6.882508	29.13572
2575	7.87583	3.0562789	5.0114	6.883199	29.10129
2576	7.88268	3.0554843	4.8932	6.882731	29.08728
2577	7.89415	3.0544759	4.7783	6.881798	29.06718
2578	7.90478	3.0544697	4.6540	6.880500	29.05834
2579	7.91185	3.0560645	4.5389	6.878891	29.06927
2580	7.91312	3.0539196	4.4268	6.879733	29.04572
2581	7.91243	3.0536508	4.3116	6.879940	29.04352
2582	7.91264	3.0531131	4.1905	6.880163	29.03774
2583	7.91222	3.0514333	4.0634	6.880996	29.02050
2584	7.91296	3.0503828	3.9450	6.881392	29.00889
2585	7.91525	3.0503644	3.8179	6.881119	29.00686
2586	7.91812	3.0498330	3.6970	6.881014	28.99895
2587	7.92067	3.0507979	3.5755	6.880250	29.00702
2588	7.92216	3.0523065	3.4575	6.879363	29.02168
2589	7.92051	3.0527096	3.3424	6.879374	29.02733
2590	7.91742	3.0532839	3.2393	6.879481	29.03597
2591	7.91307	3.0571947	3.1210	6.878188	29.08073
2592	7.90855	3.0636885	3.0090	6.875710	29.15280
2593	7.90579	3.0704690	2.8909	6.872883	29.22647
2594	7.90558	3.0769734	2.7697	6.869875	29.29512
2595	7.90393	3.0858563	2.6576	6.865932	29.39004
2596	7.88566	3.0929564	2.5304	6.864836	29.48025
2597	7.85322	3.0977527	2.4152	6.866527	29.55827
2598	7.82193	3.1004255	2.2880	6.869069	29.61304
2599	7.79564	3.1006347	2.1790	6.872158	29.63761
2600	7.77514	3.0978824	2.0546	6.875935	29.62599
2601	7.76117	3.0940196	1.9428	6.879445	29.59706
2602	7.75386	3.0923129	1.8336	6.881133	29.58526
2603	7.75010	3.1038187	1.7308	6.876182	29.71022
2604	7.74047	3.1106020	1.6095	6.874161	29.79030
2605	7.72555	3.0974282	1.5032	6.882165	29.66358
2606	7.71942	3.0857352	1.4004	6.888413	29.54507
2607	7.72143	3.0823255	1.3065	6.889771	29.50732
2608	7.72608	3.0851339	1.2156	6.887880	29.53314
2609	7.72793	3.0945907	1.1247	6.883203	29.63168
2610	7.72381	3.1025218	1.0217	6.879971	29.71921
2611	7.71757	3.1094209	0.9159	6.877481	29.79767
2612	7.71133	3.1172001	0.8217	6.874574	29.88550
2613	7.70472	3.1267865	0.7156	6.870860	29.99288
2614	7.69045	3.1387916	0.6096	6.866929	30.13266
2615	7.66245	3.1299191	0.5126	6.874492	30.06267
2616	7.63020	3.1209084	0.4248	6.882652	29.99479
2617	7.60451	3.1513588	0.3488	6.871358	30.34109
2618	7.58026	3.1643162	0.2430	6.868145	30.50045
2619	7.51280	3.1647689	0.1248	6.876049	30.56462
2620	7.35935	3.1611979	0.0703	6.896278	30.66187
2621	7.23892	3.1601902	0.0793	6.911355	30.75793
2622	7.13854	3.1543009	0.0763	6.926404	30.78385
2623	7.05604	3.1503443	0.0704	6.938387	30.81477
2624	7.02489	3.1596540	0.0763	6.937648	30.94351
2625	7.01283	1.0798915	0.0762	7.970736	9.60142
2626	7.01683	0.4856029	0.0699	8.261161	4.07269
2627	7.02785	0.4360078	0.0700	8.282699	3.62961
2628	7.04142	0.6166448	0.0701	8.193120	5.25356
2629	7.04897	0.7994481	0.0669	8.102510	6.93868
2630	7.05224	0.8041472	0.0702	8.099590	6.98184
2631	7.05448	0.7552544	0.0670	8.123108	6.52657
2632	7.05677	0.7313321	0.0670	8.134362	6.30454
2633	7.05932	0.7197649	0.0700	8.139522	6.19716
2634	7.06223	0.6577974	0.0760	8.169132	5.62651
2635	7.06551	0.6294177	0.0761	8.182271	5.36640
2636	7.06884	0.5786336	0.0762	8.206189	4.90392
2637	7.07223	0.5211846	0.0761	8.233180	4.38497
2638	7.07582	0.4765693	0.0700	8.253837	3.98511
2639	7.07946	0.4581684	0.0698	8.261896	3.82083
2640	7.08358	0.3676557	0.0699	8.303959	3.02243
2641	7.08800	0.4284378	0.0699	8.274343	3.55632
2642	7.09284	0.3456989	0.0669	8.312415	2.83025
2643	7.09836	0.3317701	0.0667	8.317827	2.70889
2644	7.10404	0.3440006	0.0668	8.310961	2.81458
2645	7.10998	0.3384546	0.0667	8.312364	2.76594
2646	7.11613	0.5036783	0.0728	8.232951	4.22252
2647	7.12394	0.6522161	0.0697	8.159985	5.56543
2648	7.14501	0.5297853	0.0697	8.214816	4.45292
2649	7.16175	0.4013898	0.0667	8.272472	3.31073
2650	7.17395	0.3520642	0.0666	8.293170	2.87889
2651	7.18382	0.3255144	0.0695	8.303563	2.64817
2652	7.19092	0.3245866	0.0696	8.302568	2.63962
2653	7.19629	0.3474301	0.0635	8.290862	2.83682
2654	7.19943	0.3162120	0.0726	8.304745	2.56679
2655	7.19890	0.2954116	0.0727	8.314474	2.38816
2656	7.20063	0.2934756	0.0725	8.315021	2.37146
2657	7.20480	0.2929944	0.0695	8.314401	2.36706
2658	7.20966	0.2844280	0.0726	8.317370	2.29348
