Scan Count	Temperature [ITS-90, deg C]	Conductivity [S/m]	Pressure, Strain Gauge [db]	Depth [salt water, m]	Oxygen Saturation, Weiss [ml/l]	Salinity, Practical [PSU]
1	9.57479	0.0121741	-0.0073	-0.0072	7.966697	0.08198
2	9.57441	0.0121679	-0.0132	-0.0131	7.966772	0.08194
3	9.57374	0.0121276	-0.0071	-0.0071	7.966912	0.08167
4	9.57208	0.0132502	-0.0072	-0.0072	7.966842	0.08926
5	9.57075	0.0158853	-0.0132	-0.0131	7.966185	0.10717
6	9.56560	0.0174605	-0.0165	-0.0164	7.966613	0.11795
7	9.55524	0.0185330	-0.0073	-0.0073	7.968201	0.12535
8	9.54449	0.0192825	-0.0074	-0.0073	7.969973	0.13054
9	9.52910	0.0201910	-0.0133	-0.0132	7.972571	0.13685
10	9.51819	0.0212213	-0.0104	-0.0103	7.974275	0.14402
11	9.50951	0.0222864	-0.0073	-0.0072	7.975547	0.15143
12	9.49877	0.0230715	-0.0043	-0.0043	7.977304	0.15693
13	9.48804	0.0233489	-0.0073	-0.0072	7.979242	0.15890
14	9.47516	0.0234361	-0.0012	-0.0012	7.981656	0.15956
15	9.46085	0.0232118	-0.0104	-0.0103	7.984453	0.15806
16	9.44875	0.0227942	-0.0044	-0.0044	7.986900	0.15520
17	9.44322	0.0225325	-0.0163	-0.0162	7.988043	0.15340
18	9.44223	0.0224515	-0.0044	-0.0044	7.988261	0.15284
19	9.44322	0.0222054	-0.0073	-0.0073	7.988159	0.15113
20	9.44422	0.0219967	-0.0074	-0.0074	7.988044	0.14967
21	9.44366	0.0217196	-0.0104	-0.0103	7.988247	0.14775
22	9.44427	0.0218815	-0.0042	-0.0042	7.988074	0.14887
23	9.44676	0.0232024	-0.0074	-0.0073	7.987134	0.15805
24	9.44886	0.0231837	-0.0103	-0.0102	7.986741	0.15791
25	9.44941	0.0228628	-0.0043	-0.0043	7.986750	0.15567
26	9.44924	0.0239504	-0.0074	-0.0073	7.986396	0.16325
27	9.45051	0.0243495	-0.0103	-0.0102	7.986012	0.16603
28	9.45223	0.0239847	-0.0043	-0.0043	7.985817	0.16348
29	9.45400	0.0241126	-0.0103	-0.0102	7.985435	0.16436
30	9.45648	0.0239910	-0.0071	-0.0071	7.985006	0.16350
31	9.45941	0.0240003	-0.0073	-0.0072	7.984446	0.16356
32	9.46018	0.0239910	-0.0073	-0.0073	7.984303	0.16349
33	9.44908	0.0239286	-0.0104	-0.0103	7.986435	0.16310
34	9.42798	0.0242123	-0.0041	-0.0041	7.990345	0.16517
35	9.40590	0.0240284	-0.0041	-0.0041	7.994611	0.16398
36	9.38720	0.0236668	-0.0074	-0.0073	7.998302	0.16153
37	9.37942	0.0233956	-0.0041	-0.0041	7.999880	0.15967
38	9.38042	0.0231525	-0.0040	-0.0040	7.999777	0.15797
39	9.38400	0.0230186	-0.0073	-0.0073	7.999142	0.15702
40	9.38775	0.0227537	-0.0103	-0.0102	7.998522	0.15516
41	9.38659	0.0225263	-0.0042	-0.0042	7.998823	0.15358
42	9.37827	0.0224359	-0.0042	-0.0042	8.000442	0.15298
43	9.36972	0.0225886	-0.0012	-0.0012	8.002017	0.15408
44	9.36972	0.0228098	-0.0042	-0.0042	8.001939	0.15562
45	9.36393	0.0234143	-0.0043	-0.0043	8.002827	0.15987
46	9.34679	0.0241624	0.0018	0.0018	8.005829	0.16517
47	9.33148	0.0248921	-0.0011	-0.0011	8.008491	0.17034
48	9.32448	0.0255690	-0.0012	-0.0012	8.009584	0.17512
49	9.31810	0.0260807	-0.0012	-0.0012	8.010620	0.17875
50	9.31138	0.0265270	0.0050	0.0050	8.011743	0.18192
51	9.30241	0.0268703	0.0019	0.0019	8.013334	0.18438
52	9.29811	0.0271575	-0.0072	-0.0072	8.014051	0.18642
53	9.30021	0.0270514	-0.0103	-0.0102	8.013689	0.18566
54	9.30252	0.0272606	-0.0011	-0.0011	8.013172	0.18712
55	9.30532	0.0276758	-0.0010	-0.0010	8.012486	0.19004
56	9.30510	0.0277758	-0.0072	-0.0072	8.012492	0.19074
57	9.30488	0.0274698	-0.0101	-0.0101	8.012644	0.18859
58	9.30824	0.0271107	-0.0073	-0.0072	8.012132	0.18604
59	9.31182	0.0269109	0.0020	0.0020	8.011521	0.18462
60	9.31633	0.0267330	-0.0101	-0.0101	8.010722	0.18334
61	9.32173	0.0265270	-0.0070	-0.0070	8.009766	0.18187
62	9.32746	0.0260058	-0.0071	-0.0070	8.008859	0.17818
63	9.33252	0.0265020	0.0021	0.0021	8.007714	0.18164
64	9.33699	0.0266144	-0.0011	-0.0011	8.006822	0.18241
65	9.34145	0.0263147	-0.0009	-0.0009	8.006078	0.18028
66	9.34541	0.0258311	-0.0040	-0.0040	8.005495	0.17687
67	9.34866	0.0251853	-0.0071	-0.0071	8.005106	0.17232
68	9.34894	0.0247081	-0.0009	-0.0009	8.005224	0.16898
69	9.35026	0.0239754	-0.0040	-0.0040	8.005234	0.16384
70	9.35329	0.0233489	-0.0040	-0.0040	8.004879	0.15945
71	9.35704	0.0229313	-0.0101	-0.0100	8.004313	0.15652
72	9.36035	0.0224702	-0.0070	-0.0070	8.003847	0.15329
73	9.36106	0.0221089	0.0021	0.0021	8.003839	0.15077
74	9.36244	0.0218005	-0.0009	-0.0009	8.003685	0.14862
75	9.36343	0.0215234	-0.0040	-0.0039	8.003595	0.14668
76	9.36492	0.0210968	-0.0069	-0.0069	8.003462	0.14371
77	9.36856	0.0207419	-0.0038	-0.0038	8.002894	0.14123
78	9.37187	0.0205770	0.0023	0.0023	8.002322	0.14008
79	9.37490	0.0203778	-0.0040	-0.0040	8.001814	0.13868
80	9.37788	0.0201910	-0.0038	-0.0038	8.001313	0.13738
81	9.38119	0.0200604	-0.0100	-0.0099	8.000728	0.13646
82	9.38190	0.0199732	-0.0040	-0.0040	8.000622	0.13585
83	9.37485	0.2585571	0.0478	0.0475	7.909870	1.95028
84	9.08907	2.8017052	0.2700	0.2685	6.848629	25.54827
85	8.52709	2.8370067	0.5410	0.5380	6.903237	26.31614
86	8.11728	2.8543654	0.7327	0.7287	6.946976	26.80357
87	7.86312	2.8635371	0.8729	0.8681	6.974945	27.09432
88	7.73130	2.8469188	0.9794	0.9740	6.999590	27.02286
89	7.66550	2.8556150	0.9947	0.9893	7.003894	27.16506
90	7.64459	2.8593645	0.9337	0.9285	7.004788	27.22073
91	7.64195	2.8552457	0.9094	0.9044	7.007082	27.17959
92	7.63493	2.8605571	0.9185	0.9135	7.005457	27.24081
93	7.60934	2.8670420	0.9490	0.9438	7.005647	27.32895
94	7.58467	2.8668453	0.9977	0.9922	7.008898	27.34624
95	7.57150	2.8628598	1.0616	1.0558	7.012485	27.31466
96	7.57144	2.8628897	1.0981	1.0921	7.012478	27.31500
97	7.61710	2.8622928	1.0981	1.0921	7.006917	27.27292
98	7.67152	2.8636821	1.0343	1.0286	6.999298	27.24493
99	7.71157	2.8680079	0.9703	0.9650	6.992136	27.25898
100	7.73294	2.8649045	0.9066	0.9017	6.990878	27.20982
101	7.72088	2.8704315	0.8851	0.8802	6.989802	27.27713
102	7.67421	2.8775464	0.9369	0.9317	6.992381	27.38829
103	7.62839	2.8860856	1.0009	0.9954	6.994166	27.51406
104	7.59869	2.8816419	1.0708	1.0650	7.000063	27.49077
105	7.58388	2.8724930	1.0831	1.0771	7.006310	27.40622
106	7.57566	2.8714600	1.0707	1.0648	7.007853	27.40184
107	7.59063	2.8802369	1.0223	1.0166	7.001760	27.48238
108	7.61720	2.8891016	0.9612	0.9560	6.994155	27.55463
109	7.62612	2.8972814	0.9370	0.9319	6.989135	27.63360
110	7.60539	2.8983422	0.9430	0.9378	6.991264	27.66122
111	7.58056	2.8978511	0.9583	0.9531	6.994654	27.67578
112	7.56117	2.8890183	0.9887	0.9833	7.001332	27.59815
113	7.54816	2.8872052	1.0282	1.0226	7.003856	27.58935
114	7.55711	2.8874385	1.0497	1.0439	7.002603	27.58470
115	7.59511	2.8905683	1.0526	1.0468	6.996272	27.58752
116	7.63060	2.8960832	1.0526	1.0469	6.989136	27.61739
117	7.64696	2.8976767	1.0467	1.0409	6.986302	27.62117
118	7.64385	2.8995224	1.0343	1.0286	6.985821	27.64305
119	7.62543	2.8987136	1.0192	1.0136	6.988543	27.64917
120	7.59827	2.8987138	0.9980	0.9925	6.991993	27.67076
121	7.57645	2.9000145	0.9706	0.9652	6.994147	27.70184
122	7.55943	2.9015731	0.9796	0.9743	6.995567	27.73182
123	7.54669	2.9032999	0.9826	0.9772	6.996364	27.76019
124	7.53900	2.9039116	1.0193	1.0137	6.997050	27.77276
125	7.53942	2.9009979	1.0559	1.0501	6.998388	27.74168
126	7.54032	2.8991458	1.0557	1.0499	6.999158	27.72144
127	7.55511	2.8992955	1.0497	1.0439	6.997204	27.71123
128	7.59221	2.9033355	1.0315	1.0258	6.990565	27.72424
129	7.62074	2.9055121	0.9979	0.9924	6.985909	27.72444
130	7.62691	2.9073235	0.9889	0.9835	6.984266	27.73858
131	7.61309	2.9063999	0.9949	0.9895	6.986457	27.73987
132	7.58799	2.9047807	1.0041	0.9985	6.990412	27.74283
133	7.56691	2.9044031	1.0195	1.0139	6.993269	27.75566
134	7.55285	2.9050989	1.0194	1.0138	6.994724	27.77422
135	7.54906	2.9057887	1.0163	1.0107	6.994877	27.78453
136	7.55380	2.9049250	1.0102	1.0047	6.994686	27.77163
137	7.54943	2.9064844	0.9919	0.9864	6.994498	27.79158
138	7.54121	2.9075823	0.9890	0.9836	6.995017	27.80973
139	7.53421	2.9017772	1.0043	0.9988	6.998678	27.75408
140	7.52405	2.8986306	1.0345	1.0288	7.001474	27.72899
141	7.51905	2.9003147	1.0649	1.0591	7.001306	27.75073
142	7.52431	2.9036539	1.0681	1.0622	6.999042	27.78176
143	7.52426	2.9034800	1.0468	1.0410	6.999131	27.77998
144	7.52147	2.9041996	1.0225	1.0169	6.999142	27.78981
145	7.52868	2.9029883	0.9768	0.9715	6.998802	27.77128
146	7.53005	2.8976478	0.9585	0.9532	7.001178	27.71387
147	7.52531	2.8941974	0.9737	0.9684	7.003429	27.68125
148	7.51889	2.8943053	1.0102	1.0047	7.004196	27.68748
149	7.51774	2.8979655	1.0439	1.0381	7.002596	27.72701
150	7.52168	2.9018313	1.0590	1.0532	7.000247	27.76464
151	7.52495	2.9044035	1.0559	1.0501	6.998603	27.78917
152	7.56049	2.9046070	1.0347	1.0290	6.993988	27.76293
153	7.60333	2.9015128	1.0044	0.9989	6.990019	27.69620
154	7.62390	2.8992769	0.9800	0.9746	6.988469	27.65633
155	7.62158	2.8990911	0.9738	0.9685	6.988852	27.65622
156	7.59785	2.7932381	0.9952	0.9897	7.042276	26.56361
157	7.57919	2.8371583	1.0439	1.0382	7.023750	27.03856
158	7.57039	2.8836754	1.0652	1.0593	7.002704	27.53455
159	7.56359	2.8790656	1.0620	1.0562	7.005769	27.49140
160	7.58383	2.8457059	1.0532	1.0474	7.019079	27.12472
161	7.62395	2.7738161	1.0195	1.0139	7.048136	26.34053
162	7.65694	2.7993873	0.9798	0.9744	7.031688	26.58288
163	7.67268	2.9022075	0.9526	0.9473	6.980890	27.64842
164	7.66238	2.9007629	0.9618	0.9565	6.982880	27.64141
165	7.63203	2.8998402	0.9923	0.9869	6.987170	27.65579
166	7.60512	2.9013389	1.0441	1.0383	6.989874	27.69293
167	7.59395	2.9047507	1.0774	1.0715	6.989671	27.73773
168	7.58604	2.9061182	1.0927	1.0867	6.990025	27.75844
169	7.59358	2.9067180	1.0958	1.0898	6.988783	27.75874
170	7.63266	2.9067716	1.0745	1.0686	6.983800	27.72816
171	7.67844	2.9069751	1.0350	1.0293	6.977904	27.69390
172	7.71987	2.9070347	0.9678	0.9625	6.972630	27.66165
173	7.74574	2.9057628	0.9193	0.9143	6.969959	27.62782
174	7.75638	2.9041974	0.8980	0.8931	6.969352	27.60300
175	7.76083	2.9024645	0.9193	0.9142	6.969607	27.58131
176	7.72707	2.8924649	1.0138	1.0082	6.978604	27.50312
177	7.66877	2.8874374	1.1052	1.0991	6.988388	27.49633
178	7.61604	2.8889281	1.1598	1.1534	6.994389	27.55364
179	7.58203	2.8979949	1.1569	1.1505	6.994402	27.67604
180	7.55970	2.9039114	1.1081	1.1020	6.994422	27.75620
181	7.57539	2.9040372	1.0351	1.0294	6.992366	27.74503
182	7.62512	2.9028435	0.9438	0.9386	6.986620	27.69290
183	7.66829	2.8973050	0.8676	0.8628	6.983767	27.60043
184	7.69392	2.8949385	0.8435	0.8388	6.981636	27.55531
185	7.67189	2.8866894	0.8799	0.8751	6.988342	27.48610
186	7.61926	2.8843927	0.9895	0.9841	6.996132	27.50348
187	7.57334	2.8859425	1.1082	1.1021	7.001248	27.55606
188	7.53968	2.8889168	1.1752	1.1688	7.004122	27.61406
189	7.51921	2.8951139	1.1935	1.1869	7.003773	27.69569
190	7.51132	2.8958927	1.1509	1.1446	7.004406	27.71021
191	7.54337	2.8945087	1.0627	1.0569	7.000982	27.67012
192	7.58377	2.8947120	0.9469	0.9417	6.995740	27.64018
193	7.61008	2.8929570	0.8647	0.8600	6.993227	27.60086
194	7.62401	2.8926095	0.8341	0.8296	6.991620	27.58618
195	7.61393	2.8873362	0.8678	0.8631	6.995409	27.53869
196	7.57666	2.8858886	0.9653	0.9600	7.000848	27.55292
197	7.54179	2.8863197	1.0779	1.0720	7.005092	27.58506
198	7.51579	2.8876064	1.1480	1.1417	7.007796	27.61924
199	7.50011	2.8910840	1.1570	1.1507	7.008134	27.66840
200	7.49296	2.8928683	1.1176	1.1115	7.008192	27.69294
201	7.51021	2.8920658	1.0445	1.0387	7.006374	27.67076
202	7.53900	2.8921194	0.9716	0.9662	7.002677	27.64844
203	7.55843	2.8917719	0.9319	0.9268	7.000367	27.62935
204	7.57255	2.8909396	0.9288	0.9237	6.998965	27.60938
205	7.57829	2.8899040	0.9411	0.9360	6.998727	27.59391
206	7.56117	2.8870076	0.9747	0.9693	7.002290	27.57698
207	7.53653	2.8848541	1.0141	1.0085	7.006462	27.57382
208	7.51753	2.8850816	1.0537	1.0479	7.008780	27.59128
209	7.50732	2.8891625	1.0781	1.0721	7.008132	27.64242
210	7.50211	2.8914013	1.0934	1.0873	7.007726	27.67018
211	7.50269	2.8928622	1.0873	1.0814	7.006953	27.68514
212	7.52337	2.8927543	1.0691	1.0633	7.004368	27.66754
213	7.54974	2.8927839	1.0234	1.0178	7.000993	27.64689
214	7.57192	2.8928137	0.9748	0.9695	6.998153	27.62960
215	7.58825	2.8905983	0.9415	0.9363	6.997128	27.59332
216	7.59880	2.8898200	0.9321	0.9270	6.996156	27.57677
217	7.59943	2.8891616	0.9535	0.9483	6.996389	27.56934
218	7.57924	2.8866006	1.0297	1.0240	7.000181	27.55835
219	7.55027	2.8847822	1.0875	1.0815	7.004744	27.56213
220	7.52821	2.8871515	1.1149	1.1087	7.006428	27.60459
221	7.51637	2.8907427	1.1149	1.1088	7.006223	27.65187
222	7.50937	2.8925209	1.0691	1.0633	7.006264	27.67622
223	7.52279	2.8929578	1.0082	1.0027	7.004344	27.67017
224	7.54448	2.8914308	0.9507	0.9454	7.002308	27.63684
225	7.56043	2.8882104	0.9292	0.9241	7.001810	27.59025
226	7.56802	2.8872947	0.9446	0.9394	7.001279	27.57458
227	7.55459	2.8848359	0.9780	0.9726	7.004165	27.55932
228	7.53137	2.8848541	1.0329	1.0272	7.007121	27.57790
229	7.51158	2.8859431	1.0634	1.0575	7.009127	27.60508
230	7.49948	2.8885581	1.0785	1.0725	7.009421	27.64228
231	7.49328	2.8906830	1.0664	1.0605	7.009197	27.66965
232	7.49259	2.8918624	1.0452	1.0394	7.008719	27.68265
233	7.50958	2.8918922	1.0087	1.0031	7.006537	27.66944
234	7.53468	2.8910298	0.9994	0.9939	7.003748	27.64038
235	7.55032	2.8895691	0.9965	0.9910	7.002452	27.61256
236	7.55569	2.8892757	1.0146	1.0090	7.001907	27.60520
237	7.54885	2.8897905	1.0178	1.0122	7.002535	27.61606
238	7.53732	2.8909998	1.0271	1.0214	7.003427	27.63796
239	7.53453	2.8913471	1.0211	1.0155	7.003617	27.64384
240	7.53200	2.8916884	1.0149	1.0093	7.003776	27.64945
241	7.53642	2.8918919	1.0119	1.0063	7.003115	27.64808
242	7.54448	2.8913650	1.0179	1.0124	7.002340	27.63612
243	7.55137	2.8905687	1.0393	1.0335	7.001842	27.62224
244	7.55164	2.8899641	1.0576	1.0518	7.002097	27.61565
245	7.54300	2.8904790	1.0668	1.0609	7.002952	27.62793
246	7.53784	2.8919458	1.0637	1.0579	7.002909	27.64750
247	7.53689	2.8922092	1.0364	1.0307	7.002904	27.65104
248	7.54058	2.8924667	0.9969	0.9914	7.002311	27.65084
249	7.55912	2.8926701	0.9602	0.9550	6.999852	27.63826
250	7.57666	2.8919095	0.9481	0.9429	6.997980	27.61632
251	7.58857	2.8901373	0.9725	0.9671	6.997308	27.58820
252	7.59316	2.8890420	1.0089	1.0034	6.997246	27.57302
253	7.57850	2.8856254	1.0548	1.0490	7.000740	27.54866
254	7.55295	2.8845668	1.0882	1.0822	7.004504	27.55774
255	7.53626	2.8891622	1.0974	1.0914	7.004440	27.61940
256	7.52663	2.8918321	1.0823	1.0764	7.004393	27.65521
257	7.52663	2.8924967	1.0306	1.0250	7.004075	27.66224
258	7.55011	2.8924306	0.9879	0.9825	7.001114	27.64288
259	7.57476	2.8903110	0.9454	0.9402	6.998983	27.60099
260	7.58904	2.8874621	0.9393	0.9341	6.998520	27.55968
261	7.59421	2.8877493	0.9515	0.9463	6.997726	27.55861
262	7.57808	2.8871750	1.0032	0.9977	7.000055	27.56532
263	7.55180	2.8881267	1.0519	1.0462	7.002953	27.59617
264	7.52784	2.8890426	1.0946	1.0885	7.005571	27.62483
265	7.51263	2.8901920	1.0948	1.0887	7.006962	27.64904
266	7.50211	2.8911199	1.0825	1.0766	7.007860	27.66721
267	7.50885	2.8912276	1.0429	1.0372	7.006949	27.66301
268	7.53410	2.8912573	1.0034	0.9979	7.003713	27.64324
269	7.55643	2.8911733	0.9578	0.9525	7.000908	27.62463
270	7.57160	2.8903949	0.9426	0.9374	6.999346	27.60439
271	7.57871	2.8899339	0.9700	0.9647	6.998660	27.59388
272	7.56449	2.8851948	1.0158	1.0102	7.002732	27.55524
273	7.53837	2.8807576	1.0524	1.0466	7.008183	27.52918
274	7.51553	2.8829044	1.0887	1.0827	7.010076	27.56989
275	7.50364	2.8881571	1.0798	1.0739	7.009083	27.63474
276	7.49643	2.8903118	1.0585	1.0527	7.008971	27.66322
277	7.50848	2.8902818	1.0129	1.0073	7.007448	27.65333
278	7.53142	2.8858591	0.9765	0.9712	7.006633	27.58848
279	7.54405	2.8827905	0.9642	0.9589	7.006485	27.54613
280	7.54100	2.8776911	0.9824	0.9770	7.009310	27.49482
281	7.51874	2.8709231	1.0220	1.0164	7.015392	27.44109
282	7.49669	2.8696635	1.0737	1.0678	7.018819	27.44521
283	7.48229	2.8790544	1.0800	1.0740	7.016168	27.55566
284	7.47367	2.8868349	1.0679	1.0620	7.013543	27.64464
285	7.47593	2.8886421	1.0403	1.0346	7.012388	27.66193
286	7.49890	2.8840230	0.9979	0.9924	7.011663	27.59492
287	7.52289	2.8777211	0.9583	0.9530	7.011610	27.50947
288	7.53179	2.8757192	0.9553	0.9500	7.011428	27.48134
289	7.51989	2.8686126	0.9920	0.9866	7.016347	27.41585
290	7.49917	2.8651931	1.0316	1.0259	7.020641	27.39615
291	7.48192	2.8661301	1.0710	1.0652	7.022405	27.41962
292	7.47214	2.8756899	1.0833	1.0774	7.019079	27.52820
293	7.46620	2.8821275	1.0712	1.0653	7.016753	27.60087
294	7.47093	2.8844838	1.0378	1.0321	7.015018	27.62200
295	7.49259	2.8835625	0.9922	0.9868	7.012690	27.59508
296	7.51279	2.8758628	0.9677	0.9624	7.013790	27.49787
297	7.52405	2.8732879	0.9495	0.9443	7.013580	27.46184
298	7.52016	2.8685827	0.9647	0.9594	7.016328	27.41534
299	7.50017	2.8624310	1.0166	1.0110	7.021834	27.36626
300	7.48050	2.8606957	1.0714	1.0655	7.025191	27.36344
301	7.46594	2.8652471	1.0988	1.0928	7.024880	27.42291
302	7.45769	2.8749791	1.1019	1.0958	7.021271	27.53214
303	7.45317	2.8801247	1.0716	1.0657	7.019381	27.59008
304	7.46741	2.8804414	1.0227	1.0171	7.017406	27.58213
305	7.48933	2.8766936	0.9741	0.9688	7.016395	27.52521
306	7.50721	2.8705530	0.9346	0.9295	7.017043	27.44633
307	7.51716	2.8701767	0.9287	0.9236	7.015949	27.43451
308	7.50795	2.8633137	0.9561	0.9508	7.020412	27.36945
309	7.48802	2.8598191	1.0199	1.0143	7.024644	27.34829
310	7.47004	2.8589965	1.0778	1.0718	7.027350	27.35376
311	7.45769	2.8627774	1.1235	1.1173	7.027124	27.40336
312	7.45102	2.8701535	1.1234	1.1173	7.024442	27.48648
313	7.44745	2.8738322	1.0960	1.0900	7.023134	27.52816
314	7.45832	2.8738022	1.0353	1.0296	7.021753	27.51925
315	7.47650	2.8715504	0.9805	0.9752	7.020501	27.48111
316	7.49133	2.8662493	0.9229	0.9178	7.021138	27.41351
317	7.49964	2.8653900	0.9015	0.8965	7.020483	27.39790
318	7.49254	2.8596461	0.9168	0.9118	7.024145	27.34295
319	7.47514	2.8570352	0.9839	0.9784	7.027633	27.32910
320	7.45995	2.8565526	1.0751	1.0691	7.029819	27.33593
321	7.44876	2.8580429	1.1299	1.1237	7.030544	27.36044
322	7.44188	2.8650505	1.1421	1.1358	7.028065	27.43983
323	7.43815	2.8677837	1.1117	1.1056	7.027231	27.47165
324	7.44818	2.8656232	1.0508	1.0451	7.026978	27.44093
325	7.46799	2.8646803	0.9780	0.9726	7.024886	27.41536
326	7.48292	2.8621747	0.9291	0.9239	7.024169	27.37718
327	7.49138	2.8635107	0.9108	0.9058	7.022443	27.38460
328	7.48854	2.8603855	0.9414	0.9362	7.024304	27.35388
329	7.47451	2.8580307	0.9779	0.9725	7.027237	27.34009
330	7.46090	2.8574884	1.0298	1.0241	7.029247	27.34507
331	7.45076	2.8583707	1.0754	1.0695	7.030129	27.36235
332	7.44540	2.8615787	1.1029	1.0968	7.029278	27.40042
333	7.44167	2.8639109	1.1090	1.1029	7.028638	27.42798
334	7.44613	2.8641973	1.0878	1.0818	7.027927	27.42748
335	7.45848	2.8640241	1.0574	1.0516	7.026423	27.41591
336	7.46957	2.8634871	1.0056	1.0001	7.025256	27.40152
337	7.47682	2.8618050	0.9813	0.9759	7.025131	27.37807
338	7.48134	2.8612742	0.9693	0.9639	7.024804	27.36891
339	7.48213	2.8616678	0.9662	0.9609	7.024514	27.37244
340	7.47388	2.8603022	0.9874	0.9820	7.026229	27.36454
341	7.46400	2.8593662	1.0209	1.0153	7.027948	27.36244
342	7.45543	2.8592232	1.0485	1.0427	7.029118	27.36767
343	7.45070	2.8606125	1.0697	1.0639	7.029060	27.38605
344	7.45091	2.8618947	1.0880	1.0820	7.028418	27.39940
345	7.44960	2.8628610	1.0819	1.0760	7.028123	27.41064
346	7.45091	2.8635112	1.0700	1.0641	7.027642	27.41647
347	7.45911	2.8637676	1.0364	1.0307	7.026465	27.41272
348	7.46878	2.8638808	1.0029	0.9974	7.025169	27.40629
349	7.47777	2.8639702	0.9726	0.9672	7.023971	27.40016
350	7.48486	2.8635108	0.9605	0.9552	7.023280	27.38972
351	7.48981	2.8622880	0.9696	0.9643	7.023232	27.37293
352	7.49144	2.8616915	1.0123	1.0068	7.023309	27.36534
353	7.49033	2.8619182	1.0670	1.0611	7.023343	27.36858
354	7.48297	2.8623775	1.1067	1.1006	7.024069	27.37921
355	7.47819	2.8630755	1.1219	1.1158	7.024349	27.39033
356	7.47792	2.8637137	1.1067	1.1006	7.024076	27.39727
357	7.48302	2.8642804	1.0612	1.0554	7.023150	27.39925
358	7.49207	2.8643937	1.0033	0.9978	7.021934	27.39333
359	7.49817	2.8638269	0.9487	0.9435	7.021421	27.38257
360	7.50169	2.8629141	0.9363	0.9312	7.021406	27.37018
361	7.50253	2.8626576	0.9546	0.9494	7.021421	27.36681
362	7.49643	2.8613814	1.0005	0.9950	7.022816	27.35814
363	7.48202	2.8594197	1.0583	1.0525	7.025606	27.34879
364	7.46983	2.8601294	1.1039	1.0979	7.026834	27.36586
365	7.46373	2.8625447	1.1254	1.1193	7.026459	27.39613
366	7.46048	2.8638272	1.1041	1.0980	7.026262	27.41224
367	7.46594	2.8639704	1.0461	1.0403	7.025491	27.40946
368	7.47714	2.8640239	1.0006	0.9951	7.024027	27.40121
369	7.48534	2.8631708	0.9640	0.9587	7.023382	27.38576
370	7.49054	2.8616080	0.9610	0.9558	7.023463	27.36519
371	7.49270	2.8227797	0.9824	0.9770	7.041785	26.95462
372	7.49128	2.8414466	1.0129	1.0074	7.033025	27.15218
373	7.48218	2.8607554	1.0646	1.0588	7.024946	27.36274
374	7.47135	2.8605587	1.0861	1.0801	7.026432	27.36919
375	7.46547	2.8620019	1.1015	1.0954	7.026496	27.38905
376	7.46337	2.8630279	1.0922	1.0862	7.026274	27.40153
377	7.46389	2.8634275	1.0709	1.0650	7.026015	27.40534
378	7.47304	2.8635109	1.0253	1.0197	7.024800	27.39902
379	7.48287	2.8634273	0.9950	0.9895	7.023577	27.39040
380	7.48949	2.8625206	0.9706	0.9653	7.023161	27.37563
381	7.49338	2.8615782	0.9736	0.9683	7.023113	27.36263
382	7.49506	2.8613516	1.0042	0.9987	7.023006	27.35890
383	7.49380	2.8608984	1.0561	1.0503	7.023386	27.35510
384	7.48276	2.8598728	1.1017	1.0956	7.025296	27.35297
385	7.47093	2.8610119	1.1229	1.1167	7.026269	27.37429
386	7.46526	2.8627773	1.0987	1.0927	7.026152	27.39739
387	7.46216	2.8637676	1.0501	1.0443	7.026074	27.41031
388	7.47046	2.8637675	0.9708	0.9655	7.025006	27.40378
389	7.48208	2.8621747	0.9376	0.9324	7.024278	27.37784
390	7.48828	2.8609282	0.9375	0.9323	7.024078	27.35981
391	7.48902	2.8600755	0.9770	0.9717	7.024393	27.35023
392	7.47813	2.8571187	1.0503	1.0445	7.027209	27.32759
393	7.46321	2.8562129	1.1081	1.1020	7.029563	27.32977
394	7.45144	2.8567494	1.1326	1.1264	7.030820	27.34468
395	7.44440	2.8599328	1.1173	1.1111	7.030197	27.38383
396	7.43973	2.8621513	1.0687	1.0628	7.029732	27.41095
397	7.43952	2.8628312	1.0047	0.9992	7.029431	27.41832
398	7.44865	2.8614116	0.9561	0.9508	7.028937	27.39614
399	7.45753	2.8590502	0.9500	0.9448	7.028929	27.36423
400	7.46069	2.8579414	0.9655	0.9602	7.029056	27.35004
401	7.45512	2.8562964	1.0019	0.9964	7.030562	27.33706
402	7.44666	2.8556469	1.0568	1.0510	7.031963	27.33685
403	7.44015	2.8557006	1.0841	1.0782	7.032776	27.34253
404	7.43652	2.8573217	1.1148	1.1086	7.032464	27.36248
405	7.43568	2.8591101	1.1085	1.1024	7.031713	27.38203
406	7.43384	2.8605292	1.0965	1.0905	7.031268	27.39846
407	7.43636	2.8612388	1.0600	1.0542	7.030602	27.40398
408	7.44624	2.8613520	1.0052	0.9997	7.029277	27.39740
409	7.45769	2.8609523	0.9717	0.9664	7.027997	27.38416
410	7.46699	2.8592231	0.9596	0.9544	7.027631	27.35859
411	7.47204	2.8584838	0.9688	0.9635	7.027337	27.34682
412	7.47141	2.8582870	1.0144	1.0088	7.027513	27.34522
413	7.46363	2.8572082	1.0724	1.0665	7.029031	27.33995
414	7.45349	2.8572381	1.1028	1.0968	7.030322	27.34824
415	7.44661	2.8591637	1.1089	1.1028	7.030282	27.37397
416	7.44198	2.8604695	1.0756	1.0697	7.030249	27.39142
417	7.44361	2.8608690	1.0300	1.0243	7.029847	27.39437
418	7.45207	2.8608987	0.9965	0.9910	7.028745	27.38802
419	7.45974	2.8603322	0.9874	0.9819	7.028031	27.37600
420	7.46484	2.8590502	1.0056	1.0000	7.027991	27.35845
421	7.46767	2.8584003	1.0210	1.0154	7.027938	27.34935
422	7.46967	2.8585136	1.0574	1.0516	7.027628	27.34896
423	7.46746	2.8590800	1.0848	1.0789	7.027641	27.35666
424	7.46468	2.8597061	1.0757	1.0698	7.027698	27.36546
425	7.46384	2.8605289	1.0607	1.0549	7.027411	27.37481
426	7.46794	2.8608986	1.0089	1.0034	7.026707	27.37550
427	7.47467	2.8606421	0.9785	0.9731	7.025965	27.36750
428	7.48039	2.8596164	0.9541	0.9489	7.025720	27.35219
429	7.48281	2.8592229	0.9754	0.9700	7.025598	27.34613
430	7.47829	2.8579710	1.0335	1.0278	7.026780	27.33646
431	7.46563	2.8566658	1.0912	1.0852	7.029035	27.33265
432	7.45449	2.8576613	1.1218	1.1156	7.029990	27.35191
433	7.44818	2.8594200	1.1188	1.1126	7.029957	27.37543
434	7.44409	2.8601415	1.0701	1.0642	7.030137	27.38630
435	7.44986	2.8602130	1.0001	0.9946	7.029358	27.38252
436	7.45885	2.8594497	0.9453	0.9401	7.028568	27.36741
437	7.46568	2.8581142	0.9180	0.9129	7.028330	27.34795
438	7.46878	2.8579175	0.9273	0.9222	7.028026	27.34343
439	7.46195	2.8561294	0.9728	0.9674	7.029763	27.32993
440	7.45065	2.8551343	1.0368	1.0311	7.031695	27.32830
441	7.44151	2.8554443	1.0948	1.0887	7.032723	27.33875
442	7.43605	2.8575482	1.1252	1.1190	7.032416	27.36524
443	7.43248	2.8590207	1.1190	1.1129	7.032168	27.38360
444	7.43416	2.8593367	1.1038	1.0978	7.031800	27.38562
445	7.44414	2.8592770	1.0494	1.0436	7.030544	27.37714
446	7.45449	2.8587939	0.9975	0.9920	7.029445	27.36391
447	7.46153	2.8574883	0.9580	0.9528	7.029165	27.34460
448	7.46452	2.8570353	0.9550	0.9497	7.028997	27.33747
449	7.46436	2.8571188	0.9672	0.9619	7.028978	27.33847
450	7.45706	2.8562129	1.0007	0.9952	7.030352	27.33465
451	7.44703	2.8555873	1.0372	1.0315	7.031944	27.33593
452	7.43967	2.8561297	1.0709	1.0650	7.032630	27.34744
453	7.43631	2.8574588	1.0860	1.0800	7.032425	27.36411
454	7.43374	2.8583709	1.0799	1.0740	7.032318	27.37577
455	7.43552	2.8585676	1.0738	1.0679	7.031993	27.37644
456	7.44419	2.8586331	1.0556	1.0498	7.030847	27.37030
457	7.45217	2.8585674	1.0192	1.0136	7.029851	27.36333
458	7.45722	2.8580308	1.0009	0.9954	7.029460	27.35370
459	7.46027	2.8573453	0.9856	0.9802	7.029396	27.34408
460	7.46158	2.8570353	0.9857	0.9803	7.029376	27.33977
461	7.46252	2.8570353	1.0041	0.9986	7.029255	27.33902
462	7.45995	2.8571486	1.0256	1.0200	7.029532	27.34223
463	7.45548	2.8572321	1.0470	1.0412	7.030067	27.34662
464	7.45202	2.8574885	1.0711	1.0652	7.030390	27.35205
465	7.45081	2.8577448	1.0834	1.0774	7.030423	27.35570
466	7.45013	2.8581144	1.0774	1.0715	7.030333	27.36014
467	7.45133	2.8583409	1.0652	1.0593	7.030069	27.36158
468	7.45606	2.8585674	1.0531	1.0473	7.029352	27.36025
469	7.46132	2.8586806	1.0319	1.0262	7.028622	27.35731
470	7.46647	2.8587402	1.0167	1.0111	7.027931	27.35389
471	7.47151	2.8587103	1.0075	1.0020	7.027296	27.34961
472	7.47566	2.8586268	1.0108	1.0052	7.026803	27.34546
473	7.47850	2.8583108	1.0229	1.0173	7.026590	27.33988
474	7.47908	2.8580545	1.0442	1.0384	7.026639	27.33672
475	7.47861	2.8580843	1.0657	1.0598	7.026685	27.33740
476	7.47861	2.8584003	1.0838	1.0779	7.026534	27.34072
477	7.47877	2.8585791	1.0840	1.0780	7.026428	27.34248
478	7.47934	2.8585135	1.0656	1.0598	7.026385	27.34134
479	7.48192	2.8585671	1.0292	1.0235	7.026028	27.33989
480	7.48371	2.8585373	1.0049	0.9994	7.025812	27.33818
481	7.48418	2.8582571	0.9926	0.9872	7.025885	27.33486
482	7.48392	2.8580306	0.9988	0.9933	7.026028	27.33268
483	7.48323	2.8580306	1.0233	1.0176	7.026116	27.33321
484	7.48171	2.8582273	1.0478	1.0420	7.026218	27.33647
485	7.47808	2.8583108	1.0660	1.0601	7.026644	27.34020
486	7.47593	2.8581976	1.0782	1.0723	7.026976	27.34070
487	7.47530	2.8583705	1.0873	1.0813	7.026974	27.34301
488	7.47677	2.8585672	1.0660	1.0601	7.026691	27.34394
489	7.48018	2.8585970	1.0356	1.0299	7.026237	27.34157
490	7.48202	2.8585969	0.9992	0.9937	7.026000	27.34014
491	7.48308	2.8585135	0.9657	0.9604	7.025904	27.33844
492	7.48365	2.8582571	0.9688	0.9635	7.025952	27.33528
493	7.48386	2.8584002	1.0114	1.0058	7.025858	27.33661
494	7.48050	2.8580008	1.0754	1.0695	7.026482	27.33502
495	7.46967	2.8574585	1.1243	1.1181	7.028135	27.33781
496	7.46084	2.8580547	1.1211	1.1149	7.028984	27.35105
497	7.45659	2.8583707	1.0877	1.0818	7.029379	27.35775
498	7.45485	2.8585018	1.0238	1.0182	7.029538	27.36052
499	7.45853	2.8585137	0.9661	0.9608	7.029058	27.35777
500	7.46342	2.8579175	0.9418	0.9366	7.028716	27.34765
501	7.46631	2.8573750	0.9479	0.9427	7.028604	27.33965
502	7.46573	2.8569519	0.9874	0.9820	7.028882	27.33562
503	7.45732	2.8557600	1.0454	1.0397	7.030536	27.32965
504	7.44734	2.8553906	1.1002	1.0942	7.031999	27.33359
505	7.44041	2.8566362	1.1247	1.1185	7.032294	27.35218
506	7.43642	2.8577449	1.1337	1.1274	7.032275	27.36703
507	7.43432	2.8583709	1.1065	1.1004	7.032244	27.37530
508	7.44120	2.8584006	1.0486	1.0429	7.031344	27.37021
509	7.45144	2.8583409	0.9877	0.9822	7.030054	27.36153
510	7.45885	2.8573215	0.9483	0.9431	7.029590	27.34496
511	7.46326	2.8567492	0.9391	0.9339	7.029296	27.33545
512	7.46410	2.8568088	0.9726	0.9673	7.029160	27.33540
513	7.45722	2.8554739	1.0273	1.0217	7.030687	27.32672
514	7.44713	2.8547113	1.0914	1.0854	7.032352	27.32659
515	7.43936	2.8554205	1.1282	1.1220	7.033013	27.34018
516	7.43558	2.8570058	1.1311	1.1249	7.032738	27.35989
517	7.43300	2.8577748	1.1188	1.1127	7.032699	27.37004
518	7.43805	2.8578284	1.0825	1.0766	7.032024	27.36664
519	7.44713	2.8577746	1.0307	1.0250	7.030880	27.35893
520	7.45527	2.8577745	0.9881	0.9827	7.029832	27.35253
521	7.46132	2.8577745	0.9578	0.9525	7.029055	27.34779
522	7.46489	2.8569221	0.9425	0.9373	7.029004	27.33599
523	7.46720	2.8563558	0.9669	0.9616	7.028979	27.32819
524	7.46799	2.8567254	1.0155	1.0099	7.028701	27.33144
525	7.46368	2.8562963	1.0857	1.0797	7.029462	27.33028
526	7.45307	2.8560699	1.1345	1.1283	7.030937	27.33623
527	7.44592	2.8569223	1.1345	1.1283	7.031447	27.35085
528	7.44219	2.8574349	1.1193	1.1131	7.031680	27.35920
529	7.44424	2.8575183	1.0646	1.0588	7.031376	27.35849
530	7.45091	2.8573454	0.9916	0.9861	7.030599	27.35144
531	7.45654	2.8565228	0.9460	0.9408	7.030270	27.33835
532	7.45953	2.8562129	0.9430	0.9378	7.030033	27.33273
533	7.45953	2.8560698	0.9856	0.9802	7.030103	27.33120
534	7.45217	2.8547649	1.0373	1.0316	7.031676	27.32321
535	7.44167	2.8542287	1.0984	1.0924	7.033287	27.32579
536	7.43353	2.8547651	1.1198	1.1136	7.034078	27.33785
537	7.42928	2.8561000	1.1136	1.1075	7.033984	27.35530
538	7.42613	2.8569523	1.0802	1.0743	7.033979	27.36679
539	7.42828	2.8572085	1.0313	1.0257	7.033578	27.36782
540	7.43500	2.8571786	0.9980	0.9925	7.032727	27.36222
541	7.44151	2.8565826	0.9859	0.9805	7.032175	27.35080
542	7.44592	2.8558435	0.9859	0.9805	7.031962	27.33953
543	7.44776	2.8555336	1.0194	1.0138	7.031875	27.33480
544	7.44771	2.8555455	1.0560	1.0502	7.031876	27.33495
545	7.44556	2.8555575	1.0957	1.0897	7.032149	27.33676
546	7.44099	2.8557006	1.1200	1.1138	7.032668	27.34185
547	7.43852	2.8560999	1.1141	1.1080	7.032794	27.34801
548	7.43679	2.8564098	1.0775	1.0716	7.032868	27.35267
549	7.43626	2.8567495	1.0227	1.0171	7.032771	27.35669
550	7.44078	2.8566124	0.9617	0.9564	7.032255	27.35171
551	7.44577	2.8559567	0.9407	0.9355	7.031927	27.34086
552	7.44781	2.8555038	0.9649	0.9596	7.031881	27.33446
553	7.44550	2.8546815	1.0169	1.0113	7.032574	27.32759
554	7.43805	2.8536628	1.0961	1.0901	7.034025	27.32268
555	7.43069	2.8535199	1.1355	1.1293	7.035041	27.32694
556	7.42581	2.8547354	1.1417	1.1354	7.035086	27.34361
557	7.42282	2.8561000	1.1082	1.1021	7.034815	27.36039
558	7.42229	2.8565530	1.0565	1.0507	7.034664	27.36561
559	7.42817	2.8564694	0.9866	0.9812	7.033946	27.36012
560	7.43463	2.8560164	0.9531	0.9479	7.033331	27.35026
561	7.43899	2.8551046	0.9563	0.9510	7.033208	27.33720
562	7.44078	2.8546816	0.9865	0.9811	7.033182	27.33132
563	7.43894	2.8545088	1.0141	1.0086	7.033502	27.33093
564	7.43411	2.8542288	1.0751	1.0692	7.034260	27.33176
565	7.42901	2.8537999	1.1116	1.1055	7.035123	27.33123
566	7.42492	2.8526382	1.1209	1.1147	7.036209	27.32219
567	7.42124	2.8518758	1.1178	1.1116	7.037049	27.31703
568	7.41731	2.8521856	1.0994	1.0933	7.037407	27.32341
569	7.41395	2.8523285	1.0570	1.0512	7.037770	27.32758
570	7.41164	2.8525073	1.0143	1.0087	7.037981	27.33130
571	7.41043	2.8526383	0.9840	0.9786	7.038073	27.33365
572	7.41022	2.8526145	0.9747	0.9693	7.038111	27.33357
573	7.41022	2.8525847	0.9780	0.9726	7.038126	27.33325
574	7.40996	2.8525549	1.0085	1.0029	7.038174	27.33313
575	7.40938	2.8524418	1.0510	1.0452	7.038304	27.33238
576	7.40880	2.8524418	1.0998	1.0937	7.038379	27.33281
577	7.40818	2.8523882	1.1151	1.1090	7.038486	27.33274
578	7.40770	2.8524120	1.1151	1.1090	7.038536	27.33336
579	7.40749	2.8524120	1.0940	1.0880	7.038563	27.33353
580	7.40755	2.8525848	1.0511	1.0454	7.038472	27.33533
581	7.40797	2.8527515	1.0085	1.0030	7.038337	27.33678
582	7.40896	2.8527813	0.9874	0.9819	7.038194	27.33632
583	7.40975	2.8527515	0.9934	0.9880	7.038107	27.33538
584	7.41022	2.8527813	1.0148	1.0092	7.038032	27.33531
585	7.41033	2.8528111	1.0455	1.0397	7.038004	27.33553
586	7.41022	2.8528945	1.0819	1.0760	7.037979	27.33648
587	7.40970	2.8530673	1.0969	1.0909	7.037963	27.33872
588	7.40943	2.8529541	1.1002	1.0941	7.038052	27.33773
589	7.40933	2.8528409	1.0850	1.0791	7.038119	27.33662
590	7.40933	2.8528409	1.0545	1.0487	7.038119	27.33663
591	7.40959	2.8531804	1.0303	1.0246	7.037921	27.34002
592	7.41012	2.8531209	1.0030	0.9975	7.037882	27.33899
593	7.41064	2.8531804	1.0001	0.9946	7.037785	27.33921
594	7.41111	2.8532043	1.0091	1.0035	7.037713	27.33908
595	7.41111	2.8531804	1.0397	1.0340	7.037725	27.33882
596	7.41080	2.8534366	1.0792	1.0733	7.037643	27.34175
597	7.41064	2.8536630	1.1097	1.1036	7.037555	27.34426
598	7.41054	2.8536034	1.1189	1.1127	7.037598	27.34371
599	7.41054	2.8535200	1.0884	1.0824	7.037637	27.34284
600	7.41075	2.8536094	1.0458	1.0400	7.037566	27.34363
601	7.41122	2.8537166	0.9974	0.9919	7.037453	27.34441
602	7.41153	2.8536034	0.9577	0.9524	7.037466	27.34299
603	7.41122	2.8537762	0.9609	0.9556	7.037424	27.34506
604	7.41111	2.8535736	0.9913	0.9858	7.037535	27.34299
605	7.41064	2.8535200	1.0583	1.0525	7.037623	27.34277
606	7.40980	2.8536869	1.1101	1.1040	7.037652	27.34517
607	7.40922	2.8530077	1.1343	1.1281	7.038054	27.33844
608	7.40823	2.8529779	1.1558	1.1494	7.038197	27.33891
609	7.40807	2.8527516	1.2016	1.1950	7.038327	27.33662
610	7.40755	2.8531507	1.2564	1.2495	7.038203	27.34123
611	7.40749	2.8531508	1.3415	1.3341	7.038212	27.34124
612	7.40744	2.8525015	1.5153	1.5070	7.038534	27.33435
613	7.40676	2.8523586	1.7312	1.7217	7.038695	27.33329
614	7.40597	2.8522455	1.9628	1.9520	7.038855	27.33262
615	7.40534	2.8521324	2.1911	2.1790	7.038995	27.33183
616	7.40471	2.8523588	2.4255	2.4122	7.038971	27.33462
617	7.40461	2.8532048	2.6478	2.6332	7.038582	27.34355
618	7.40655	2.9106564	2.8519	2.8362	7.010709	27.94957
619	7.42487	2.9511280	3.0680	3.0511	6.988959	28.36354
620	7.45144	2.9701235	3.3055	3.2873	6.976512	28.54313
621	7.47482	2.9959931	3.5613	3.5417	6.961211	28.79819
622	7.49706	3.0205471	3.8200	3.7990	6.946720	29.04021
623	7.51705	3.0235660	4.0820	4.0595	6.942804	29.05544
624	7.53037	3.0245279	4.3470	4.3230	6.940698	29.05440
625	7.53784	3.0248932	4.6057	4.5803	6.939602	29.05191
626	7.54200	3.0223485	4.8705	4.8437	6.940303	29.02134
627	7.54363	3.0252891	5.1385	5.1102	6.938706	29.05105
628	7.54521	3.0282247	5.4004	5.3706	6.937118	29.08075
629	7.54742	3.0410574	5.6590	5.6278	6.930745	29.21494
630	7.55264	3.0500493	5.9270	5.8944	6.925831	29.30588
631	7.55917	3.0547782	6.1857	6.1516	6.922784	29.35047
632	7.56438	3.0569970	6.4356	6.4001	6.921092	29.36951
633	7.56812	3.0568259	6.7004	6.6635	6.920718	29.36442
634	7.57013	3.0583605	6.9744	6.9359	6.919748	29.37890
635	7.57150	3.0584828	7.2394	7.1995	6.919527	29.37893
636	7.57244	3.0617547	7.5104	7.4690	6.917862	29.41274
637	7.57323	3.0697350	7.7752	7.7323	6.913982	29.49668
638	7.57239	3.0795803	8.0339	7.9896	6.909418	29.60186
639	7.56955	3.0945273	8.2958	8.2501	6.902679	29.76304
640	7.56359	3.1014579	8.5455	8.4984	6.900121	29.84174
641	7.55690	3.1024723	8.8286	8.7799	6.900461	29.85816
642	7.55248	3.1028536	9.0966	9.0464	6.900825	29.86590
643	7.54990	3.1030443	9.3492	9.2976	6.901054	29.87004
644	7.54848	3.1038006	9.6111	9.5581	6.900873	29.87920
645	7.54769	3.1044770	9.8728	9.8184	6.900654	29.88696
646	7.54748	3.1047845	10.1286	10.0727	6.900538	29.89030
647	7.54758	3.1048338	10.3906	10.3332	6.900507	29.89062
648	7.54758	3.1048892	10.6615	10.6026	6.900486	29.89110
649	7.54769	3.1049447	10.9386	10.8782	6.900452	29.89147
650	7.54758	3.1049509	11.1914	11.1296	6.900467	29.89152
651	7.54774	3.1050371	11.4653	11.4020	6.900412	29.89218
652	7.54790	3.1050371	11.7271	11.6624	6.900398	29.89194
653	7.54800	3.1051540	11.9921	11.9259	6.900335	29.89297
654	7.54816	3.1055415	12.2478	12.1802	6.900136	29.89685
655	7.54811	3.1059414	12.5158	12.4467	6.899958	29.90104
656	7.54842	3.1060706	12.7775	12.7070	6.899863	29.90203
657	7.54869	3.1063044	13.0456	12.9735	6.899725	29.90417
658	7.54906	3.1066243	13.3104	13.2368	6.899534	29.90714
659	7.54921	3.1068950	13.5722	13.4972	6.899391	29.90978
660	7.54943	3.1070181	13.8372	13.7608	6.899312	29.91079
661	7.54979	3.1071842	14.1020	14.0240	6.899193	29.91213
662	7.55000	3.1073381	14.3670	14.2875	6.899100	29.91347
663	7.55022	3.1077257	14.6289	14.5480	6.898895	29.91730
664	7.55058	3.1092453	14.8876	14.8053	6.898134	29.93304
665	7.55048	3.1116267	15.1525	15.0687	6.897021	29.95837
666	7.54932	3.1122730	15.4112	15.3259	6.896860	29.96614
667	7.54806	3.1125439	15.6824	15.5957	6.896891	29.96999
668	7.54706	3.1131411	15.9440	15.8558	6.896734	29.97710
669	7.54590	3.1144339	16.2121	16.1224	6.896267	29.99175
670	7.54453	3.1155607	16.4648	16.3737	6.895903	30.00482
671	7.54300	3.1160165	16.7327	16.6401	6.895878	30.01087
672	7.54169	3.1162998	16.9885	16.8944	6.895908	30.01492
673	7.54068	3.1165647	17.2624	17.1668	6.895909	30.01848
674	7.53984	3.1169589	17.5334	17.4363	6.895830	30.02329
675	7.53911	3.1171622	17.8134	17.7148	6.895829	30.02597
676	7.53863	3.1173655	18.0935	17.9933	6.895795	30.02842
677	7.53826	3.1177105	18.3525	18.2509	6.895681	30.03230
678	7.53795	3.1179323	18.6174	18.5143	6.895619	30.03483
679	7.53774	3.1184066	18.8853	18.7807	6.895425	30.03994
680	7.53716	3.1194108	19.1500	19.0440	6.895023	30.05103
681	7.53621	3.1201193	19.4181	19.3105	6.894807	30.05928
682	7.53489	3.1210436	19.6801	19.5711	6.894533	30.07015
683	7.53310	3.1217584	19.9386	19.8281	6.894416	30.07920
684	7.53153	3.1222145	20.2126	20.1006	6.894397	30.08531
685	7.53010	3.1225289	20.4716	20.3582	6.894425	30.08978
686	7.52895	3.1232377	20.7333	20.6184	6.894235	30.09822
687	7.52752	3.1238048	21.0166	20.9000	6.894143	30.10537
688	7.52600	3.1244089	21.2784	21.1604	6.894047	30.11302
689	7.52463	3.1251117	21.5493	21.4298	6.893884	30.12158
690	7.52337	3.1252289	21.8142	21.6932	6.893987	30.12381
691	7.52253	3.1250071	22.0852	21.9627	6.894200	30.12205
692	7.52216	3.1250503	22.3410	22.2170	6.894229	30.12272
693	7.52210	3.1254080	22.6212	22.4957	6.894071	30.12646
694	7.52174	3.1255560	22.8921	22.7651	6.894051	30.12824
695	7.52158	3.1258212	23.1722	23.0436	6.893950	30.13108
696	7.52121	3.1259137	23.4431	23.3130	6.893956	30.13226
697	7.52105	3.1259446	23.7143	23.5827	6.893965	30.13261
698	7.52095	3.1260434	23.9852	23.8520	6.893937	30.13364
699	7.52084	3.1264504	24.2560	24.1214	6.893761	30.13795
700	7.52068	3.1274000	24.5241	24.3879	6.893334	30.14809
701	7.52016	3.1275480	24.7949	24.6572	6.893333	30.15001
702	7.51958	3.1276098	25.0662	24.9269	6.893379	30.15105
703	7.51932	3.1276962	25.3371	25.1964	6.893376	30.15208
704	7.51900	3.1279059	25.6049	25.4626	6.893319	30.15448
705	7.51874	3.1283254	25.8759	25.7322	6.893157	30.15906
706	7.51826	3.1285228	26.1438	25.9985	6.893126	30.16146
707	7.51784	3.1288867	26.4056	26.2589	6.893009	30.16559
708	7.51742	3.1291582	26.6706	26.5224	6.892937	30.16873
709	7.51695	3.1293063	26.9417	26.7920	6.892929	30.17060
710	7.51647	3.1298121	27.2125	27.0612	6.892751	30.17629
711	7.51568	3.1308238	27.4711	27.3184	6.892371	30.18765
712	7.51442	3.1314470	27.7514	27.5971	6.892234	30.19527
713	7.51305	3.1316321	28.0224	27.8666	6.892317	30.19832
714	7.51205	3.1318358	28.3055	28.1481	6.892347	30.20124
715	7.51137	3.1326380	28.5979	28.4388	6.892054	30.21026
716	7.51011	3.1337734	28.8534	28.6929	6.891673	30.22336
717	7.50795	3.1339587	29.1367	28.9746	6.891852	30.22709
718	7.50632	3.1344895	29.4015	29.2379	6.891803	30.23405
719	7.50385	3.1364277	29.6663	29.5012	6.891186	30.25677
720	7.49964	3.1375020	29.9495	29.7828	6.891191	30.27177
721	7.49485	3.1378972	30.2055	30.0374	6.891588	30.28005
722	7.49154	3.1381011	30.4885	30.3188	6.891898	30.28499
723	7.48939	3.1384840	30.7564	30.5852	6.891983	30.29084
724	7.48744	3.1394103	31.0244	30.8517	6.891783	30.30231
725	7.48502	3.1405467	31.3045	31.1302	6.891541	30.31644
726	7.48145	3.1410533	31.5784	31.4025	6.891738	30.32485
727	7.47845	3.1426717	31.8404	31.6630	6.891336	30.34464
728	7.47624	3.1437159	32.1051	31.9263	6.891111	30.35760
729	7.47493	3.1439199	32.3732	32.1928	6.891179	30.36081
730	7.47403	3.1438953	32.6381	32.4562	6.891304	30.36122
731	7.47367	3.1431478	32.9059	32.7225	6.891710	30.35343
732	7.47351	3.1427896	33.1798	32.9948	6.891905	30.34962
733	7.47335	3.1422460	33.4448	33.2584	6.892188	30.34384
734	7.47340	3.1428206	33.7219	33.5339	6.891914	30.34981
735	7.47319	3.1427898	33.9932	33.8036	6.891959	30.34954
736	7.47293	3.1429073	34.2639	34.0728	6.891940	30.35091
737	7.47298	3.1431174	34.5257	34.3331	6.891839	30.35299
738	7.47304	3.1436364	34.7937	34.5996	6.891591	30.35837
739	7.47325	3.1437168	35.0615	34.8660	6.891532	30.35893
740	7.47325	3.1435995	35.3355	35.1383	6.891593	30.35756
741	7.47319	3.1441989	35.6003	35.4017	6.891319	30.36389
742	7.47309	3.1445883	35.8714	35.6712	6.891152	30.36802
743	7.47319	3.1448232	36.1424	35.9407	6.891033	30.37032
744	7.47309	3.1449468	36.4165	36.2132	6.890992	30.37161
745	7.47298	3.1450643	36.6814	36.4766	6.890954	30.37284
746	7.47298	3.1449655	36.9463	36.7400	6.891006	30.37167
747	7.47262	3.1448544	37.2141	37.0063	6.891109	30.37069
748	7.47272	3.1451264	37.4882	37.2788	6.890972	30.37338
749	7.47272	3.1451820	37.7530	37.5422	6.890951	30.37386
750	7.47240	3.1451883	38.0147	37.8024	6.890991	30.37408
751	7.47240	3.1451266	38.2919	38.0780	6.891026	30.37330
752	7.47246	3.1453615	38.5537	38.3383	6.890913	30.37565
753	7.47235	3.1453616	38.8278	38.6108	6.890931	30.37562
754	7.47204	3.1454544	39.1261	38.9075	6.890931	30.37676
755	7.47204	3.1456893	39.3789	39.1588	6.890824	30.37916
756	7.47230	3.1459057	39.6530	39.4314	6.890695	30.38112
757	7.47225	3.1461159	39.9300	39.7068	6.890606	30.38329
758	7.47230	3.1459923	40.2009	39.9761	6.890664	30.38180
759	7.47240	3.1458503	40.4778	40.2515	6.890724	30.38007
760	7.47240	3.1458751	40.7398	40.5120	6.890718	30.38022
761	7.47240	3.1458752	41.0077	40.7783	6.890723	30.38010
762	7.47277	3.1458752	41.2725	41.0417	6.890684	30.37967
763	7.47272	3.1459124	41.5405	41.3081	6.890677	30.37999
764	7.47251	3.1458445	41.8175	41.5836	6.890741	30.37933
765	7.47246	3.1458137	42.0914	41.8559	6.890767	30.37892
766	7.47256	3.1459065	42.3685	42.1314	6.890716	30.37970
767	7.47272	3.1457273	42.6488	42.4101	6.890787	30.37752
768	7.47277	3.1457892	42.9075	42.6674	6.890757	30.37803
769	7.47272	3.1460241	43.1785	42.9368	6.890656	30.38046
770	7.47225	3.1481195	43.4434	43.2002	6.889721	30.40315
771	7.46930	3.1484473	43.7020	43.4573	6.889926	30.40911
772	7.46647	3.1484103	43.9670	43.7208	6.890293	30.41109
773	7.46510	3.1487813	44.2318	43.9841	6.890287	30.41613
774	7.46358	3.1492327	44.4876	44.2385	6.890261	30.42218
775	7.46205	3.1493193	44.7494	44.4988	6.890410	30.42432
776	7.46095	3.1494678	45.0082	44.7561	6.890478	30.42676
777	7.46011	3.1495483	45.2822	45.0285	6.890546	30.42824
778	7.45953	3.1495917	45.5531	45.2979	6.890601	30.42909
779	7.45927	3.1495299	45.8301	45.5732	6.890668	30.42854
780	7.45911	3.1500123	46.0890	45.8307	6.890462	30.43372
781	7.45806	3.1505008	46.3571	46.0972	6.890362	30.43974
782	7.45627	3.1513295	46.6158	46.3544	6.890188	30.45006
783	7.45401	3.1514781	46.8655	46.6027	6.890396	30.45351
784	7.45249	3.1514782	47.1302	46.8660	6.890585	30.45474
785	7.45149	3.1515092	47.3891	47.1234	6.890697	30.45583
786	7.45065	3.1515464	47.6541	47.3868	6.890786	30.45685
787	7.45034	3.1514475	47.9280	47.6592	6.890876	30.45595
788	7.44950	3.1509714	48.1808	47.9105	6.891210	30.45148
789	7.44535	3.1508169	48.4426	48.1708	6.891791	30.45335
790	7.44057	3.1507552	48.7133	48.4399	6.892405	30.45677
791	7.43731	3.1507306	48.9937	48.7188	6.892817	30.45924
792	7.43521	3.1506380	49.2585	48.9820	6.893121	30.45998
793	7.43374	3.1507927	49.5204	49.2424	6.893230	30.46280
794	7.43342	3.1508175	49.7884	49.5089	6.893262	30.46323
795	7.43353	3.1507866	50.0713	49.7902	6.893269	30.46268
796	7.43311	3.1507001	50.3240	50.0414	6.893366	30.46201
797	7.43264	3.1507311	50.5950	50.3108	6.893414	30.46264
798	7.43232	3.1507622	50.8691	50.5834	6.893443	30.46313
799	7.43216	3.1507313	51.1217	50.8345	6.893482	30.46282
800	7.43195	3.1504408	51.3867	51.0980	6.893651	30.45978
801	7.43001	3.1502801	51.6546	51.3644	6.893968	30.45965
802	7.42691	3.1501937	51.9162	51.6245	6.894390	30.46133
803	7.42424	3.1501938	52.1842	51.8909	6.894720	30.46356
804	7.42256	3.1501568	52.4400	52.1453	6.894946	30.46453
805	7.42161	3.1502805	52.7079	52.4116	6.895007	30.46656
806	7.41946	3.1502806	52.9818	52.6840	6.895273	30.46833
807	7.41699	3.1503426	53.2470	52.9476	6.895547	30.47105
808	7.41400	3.1504045	53.5148	53.2139	6.895886	30.47422
809	7.41101	3.1504108	53.7675	53.4651	6.896250	30.47680
810	7.40917	3.1504294	54.0232	53.7194	6.896469	30.47850
811	7.40828	3.1504604	54.2973	53.9919	6.896568	30.47950
812	7.40802	3.1504049	54.5559	54.2490	6.896631	30.47902
813	7.40797	3.1504421	54.8269	54.5185	6.896625	30.47934
814	7.40776	3.1504298	55.0886	54.7787	6.896662	30.47928
815	7.40718	3.1504608	55.3566	55.0451	6.896722	30.48000
816	7.40686	3.1504609	55.6246	55.3116	6.896766	30.48016
817	7.40671	3.1504919	55.8926	55.5780	6.896775	30.48051
818	7.40660	3.1504734	56.1512	55.8351	6.896802	30.48029
819	7.40676	3.1504920	56.4132	56.0956	6.896779	30.48024
820	7.40686	3.1504921	56.6719	56.3528	6.896771	30.48003
821	7.40681	3.1505231	56.9338	56.6132	6.896768	30.48029
822	7.40681	3.1505355	57.1955	56.8734	6.896767	30.48031
823	7.40697	3.1505542	57.4635	57.1399	6.896745	30.48025
824	7.40681	3.1505233	57.7284	57.4033	6.896784	30.47994
825	7.40629	3.1505852	58.0053	57.6785	6.896823	30.48095
826	7.40608	3.1505853	58.2643	57.9360	6.896854	30.48102
827	7.40566	3.1505669	58.5382	58.2083	6.896919	30.48107
828	7.40476	3.1505855	58.8032	58.4718	6.897023	30.48193
829	7.40382	3.1505856	59.0772	58.7443	6.897143	30.48264
830	7.40298	3.1506413	59.3389	59.0044	6.897223	30.48386
831	7.40204	3.1506723	59.5947	59.2588	6.897328	30.48491
832	7.40130	3.1506972	59.8475	59.5101	6.897410	30.48571
833	7.40088	3.1506725	60.1183	59.7794	6.897478	30.48569
834	7.40057	3.1507035	60.3772	60.0367	6.897507	30.48619
835	7.40046	3.1507345	60.6421	60.3001	6.897510	30.48650
836	7.40020	3.1507284	60.9037	60.5602	6.897550	30.48654
837	7.40015	3.1507347	61.1658	60.8207	6.897558	30.48654
838	7.40009	3.1507657	61.4305	61.0839	6.897555	30.48680
839	7.39999	3.1507657	61.6955	61.3474	6.897573	30.48678
840	7.40015	3.1507967	61.9633	61.6137	6.897544	30.48685
841	7.40030	3.1507597	62.2221	61.8709	6.897548	30.48620
842	7.40030	3.1507969	62.4779	62.1253	6.897535	30.48649
843	7.40020	3.1508217	62.7336	62.3794	6.897541	30.48673
844	7.40015	3.1508836	62.9924	62.6368	6.897523	30.48733
845	7.40009	3.1509826	63.2572	62.9000	6.897488	30.48832
846	7.40015	3.1510075	63.5221	63.1634	6.897475	30.48842
847	7.40015	3.1510632	63.7809	63.4207	6.897453	30.48890
848	7.40015	3.1510633	64.0488	63.6870	6.897458	30.48878
849	7.40020	3.1511561	64.3198	63.9565	6.897413	30.48961
850	7.40036	3.1511376	64.5756	64.2108	6.897408	30.48916
851	7.40046	3.1512428	64.8341	64.4678	6.897350	30.49008
852	7.40046	3.1514532	65.0962	64.7284	6.897254	30.49222
853	7.40036	3.1515460	65.3517	64.9824	6.897228	30.49319
854	7.40015	3.1516327	65.6195	65.2487	6.897217	30.49419
855	7.39952	3.1519296	65.8876	65.5152	6.897157	30.49780
856	7.39800	3.1521153	66.1495	65.7755	6.897258	30.50101
857	7.39642	3.1523256	66.4081	66.0327	6.897353	30.50453
858	7.39432	3.1525669	66.6641	66.2872	6.897497	30.50885
859	7.39149	3.1528206	66.9290	66.5505	6.897724	30.51394
860	7.38750	3.1529568	67.1907	66.8107	6.898148	30.51879
861	7.38352	3.1529569	67.4557	67.0742	6.898636	30.52218
862	7.38006	3.1529880	67.7175	67.3344	6.899046	30.52544
863	7.37733	3.1529881	67.9822	67.5976	6.899382	30.52773
864	7.37497	3.1529449	68.2380	67.8520	6.899694	30.52923
865	7.37235	3.1527780	68.4967	68.1091	6.900097	30.52964
866	7.36884	3.1527781	68.7586	68.3695	6.900528	30.53261
867	7.36543	3.1527473	69.0477	68.6569	6.900962	30.53516
868	7.36108	3.1527165	69.3434	68.9509	6.901510	30.53853
869	7.35762	3.1527599	69.6018	69.2078	6.901914	30.54193
870	7.35505	3.1527477	69.8546	69.4591	6.902236	30.54395
871	7.35406	3.1527787	70.1195	69.7225	6.902348	30.54504
872	7.35348	3.1527479	70.4026	70.0039	6.902438	30.54509
873	7.35196	3.1527603	70.6523	70.2522	6.902621	30.54645
874	7.35070	3.1527480	70.9109	70.5093	6.902785	30.54731
875	7.35033	3.1527172	71.1759	70.7727	6.902849	30.54719
876	7.34986	3.1527482	71.4377	71.0330	6.902897	30.54782
877	7.34950	3.1527483	71.6903	71.2841	6.902947	30.54803
878	7.34923	3.1527607	71.9492	71.5415	6.902977	30.54828
879	7.34887	3.1528103	72.2140	71.8047	6.903003	30.54902
880	7.34840	3.1527795	72.4759	72.0651	6.903081	30.54899
881	7.34798	3.1528352	72.7499	72.3375	6.903110	30.54984
882	7.34782	3.1528662	73.0179	72.6040	6.903120	30.55019
883	7.34787	3.1528539	73.2888	72.8732	6.903125	30.54989
884	7.34782	3.1528664	73.5567	73.1396	6.903130	30.54995
885	7.34782	3.1528974	73.8246	73.4059	6.903121	30.55016
886	7.34855	3.1529284	74.0650	73.6449	6.903022	30.54974
887	7.34923	3.1529594	74.3239	73.9023	6.902929	30.54936
888	7.34918	3.1529780	74.5796	74.1565	6.902932	30.54949
889	7.34834	3.1529905	74.8505	74.4258	6.903033	30.55025
890	7.34756	3.1529906	75.1157	74.6895	6.903134	30.55082
891	7.34688	3.1529906	75.3865	74.9586	6.903222	30.55130
892	7.34609	3.1530093	75.6452	75.2159	6.903313	30.55208
893	7.34572	3.1530217	75.9009	75.4701	6.903357	30.55242
894	7.34499	3.1530466	76.1597	75.7273	6.903439	30.55322
895	7.34441	3.1530466	76.4217	75.9878	6.903514	30.55361
896	7.34389	3.1530467	76.6774	76.2420	6.903583	30.55396
897	7.34342	3.1530097	76.9329	76.4960	6.903663	30.55387
898	7.34300	3.1530778	77.1859	76.7475	6.903686	30.55486
899	7.34263	3.1530470	77.4628	77.0228	6.903751	30.55473
900	7.34195	3.1529605	77.7214	77.2799	6.903880	30.55429
901	7.34090	3.1529606	77.9863	77.5432	6.904012	30.55509
902	7.34022	3.1529792	78.2422	77.7976	6.904091	30.55578
903	7.33986	3.1529917	78.5008	78.0547	6.904135	30.55612
904	7.33965	3.1529917	78.7687	78.3210	6.904166	30.55619
905	7.33949	3.1530227	79.0398	78.5905	6.904175	30.55654
906	7.33928	3.1530105	79.3350	78.8840	6.904212	30.55646
907	7.33912	3.1530229	79.6060	79.1534	6.904231	30.55661
908	7.33902	3.1530477	79.8647	79.4106	6.904237	30.55686
909	7.33891	3.1530478	80.1205	79.6649	6.904255	30.55684
910	7.33896	3.1530788	80.3976	79.9403	6.904239	30.55700
911	7.33891	3.1530789	80.6625	80.2037	6.904250	30.55693
912	7.33891	3.1530790	80.9152	80.4550	6.904255	30.55682
913	7.33881	3.1531100	81.1798	80.7180	6.904258	30.55713
914	7.33881	3.1531410	81.4356	80.9723	6.904249	30.55735
915	7.33881	3.1531411	81.6853	81.2205	6.904254	30.55724
916	7.33881	3.1531412	81.9623	81.4959	6.904259	30.55711
917	7.33865	3.1531722	82.2243	81.7563	6.904268	30.55747
918	7.33849	3.1531413	82.4831	82.0136	6.904307	30.55716
919	7.33823	3.1532033	82.7541	82.2830	6.904315	30.55794
920	7.33834	3.1532343	83.0096	82.5369	6.904292	30.55806
921	7.33834	3.1532343	83.2808	82.8066	6.904298	30.55794
922	7.33834	3.1532344	83.5364	83.0607	6.904303	30.55783
923	7.33839	3.1532345	83.8013	83.3240	6.904302	30.55767
924	7.33844	3.1532902	84.0660	83.5872	6.904274	30.55810
925	7.33849	3.1532656	84.3219	83.8415	6.904284	30.55768
926	7.33813	3.1532904	84.5867	84.1048	6.904322	30.55815
927	7.33802	3.1532905	84.8425	84.3591	6.904340	30.55813
928	7.33781	3.1533215	85.1012	84.6163	6.904356	30.55853
929	7.33608	3.1533216	85.3754	84.8888	6.904571	30.55994
930	7.33525	3.1533031	85.6459	85.1577	6.904687	30.56036
931	7.33504	3.1533527	85.9079	85.4182	6.904694	30.56096
932	7.33467	3.1533218	86.1667	85.6755	6.904758	30.56084
933	7.33451	3.1533838	86.4284	85.9356	6.904753	30.56152
934	7.33273	3.1533839	86.6811	86.1868	6.904974	30.56298
935	7.33037	3.1533654	86.9309	86.4351	6.905274	30.56475
936	7.32969	3.1534150	87.2019	86.7045	6.905338	30.56576
937	7.32728	3.1533532	87.4638	86.9649	6.905665	30.56711
938	7.31885	3.1533225	87.7254	87.2250	6.906709	30.57410
939	7.30964	3.1533041	87.9811	87.4792	6.907842	30.58192
940	7.30330	3.1533228	88.2461	87.7426	6.908608	30.58760
941	7.29990	3.1533229	88.4987	87.9937	6.909026	30.59049
942	7.29807	3.1533230	88.7758	88.2691	6.909254	30.59199
943	7.29687	3.1533231	89.0619	88.5536	6.909406	30.59293
944	7.29561	3.1533665	89.3695	88.8593	6.909544	30.59436
945	7.29456	3.1533542	89.6344	89.1226	6.909682	30.59504
946	7.29441	3.1533543	89.8779	89.3647	6.909706	30.59507
947	7.29467	3.1533853	90.1397	89.6249	6.909664	30.59506
948	7.29477	3.1533854	90.4044	89.8881	6.909657	30.59485
949	7.29373	3.1533979	90.6724	90.1545	6.909783	30.59579
950	7.29179	3.1533856	90.9281	90.4086	6.910030	30.59725
951	7.28996	3.1534166	91.1869	90.6659	6.910243	30.59909
952	7.28991	3.1534167	91.4457	90.9232	6.910254	30.59902
953	7.29022	3.1534415	91.7075	91.1835	6.910209	30.59889
954	7.29017	3.1534601	91.9664	91.4408	6.910212	30.59902
955	7.28865	3.1534726	92.2188	91.6917	6.910395	30.60039
956	7.28577	3.1535036	92.4930	91.9642	6.910735	30.60314
957	7.28358	3.1534728	92.7580	92.2277	6.911022	30.60463
958	7.27730	3.1534915	93.0198	92.4879	6.911782	30.61027
959	7.26767	3.1535350	93.2754	92.7420	6.912936	30.61913
960	7.26124	3.1535661	93.5342	92.9993	6.913708	30.62504
961	7.25753	3.1535353	93.7959	93.2594	6.914180	30.62787
962	7.25466	3.1535663	94.0547	93.5167	6.914519	30.63064
963	7.25209	3.1534922	94.3044	93.7649	6.914872	30.63200
964	7.24917	3.1535046	94.5660	94.0250	6.915227	30.63460
965	7.24645	3.1534738	94.8310	94.2884	6.915578	30.63656
966	7.24514	3.1535048	95.0777	94.5336	6.915727	30.63794
967	7.24430	3.1534740	95.3394	94.7937	6.915848	30.63823
968	7.24357	3.1535236	95.6071	95.0598	6.915919	30.63929
969	7.24363	3.1535360	95.8693	95.3205	6.915912	30.63927
970	7.24383	3.1535052	96.1248	95.5745	6.915906	30.63864
971	7.24289	3.1534434	96.3835	95.8316	6.916056	30.63869
972	7.24096	3.1534188	96.6393	96.0859	6.916308	30.64002
973	7.23877	3.1534622	96.8951	96.3402	6.916559	30.64232
974	7.23751	3.1534189	97.1448	96.5884	6.916738	30.64285
975	7.23662	3.1533881	97.4066	96.8486	6.916866	30.64319
976	7.23589	3.1534191	97.6592	97.0997	6.916945	30.64406
977	7.23521	3.1534316	97.9180	97.3570	6.917027	30.64468
978	7.23469	3.1534193	98.1768	97.6142	6.917101	30.64490
979	7.23417	3.1534194	98.4355	97.8713	6.917170	30.64524
980	7.23396	3.1534751	98.6883	98.1227	6.917174	30.64592
981	7.23417	3.1534195	98.9686	98.4013	6.917181	30.64501
982	7.23385	3.1534320	99.2574	98.6884	6.917218	30.64529
983	7.23323	3.1534444	99.5345	98.9638	6.917294	30.64586
984	7.23323	3.1534755	99.7781	99.2060	6.917284	30.64608
985	7.23286	3.1534755	100.0338	99.4602	6.917334	30.64629
986	7.23208	3.1534756	100.2988	99.7236	6.917434	30.64687
987	7.23202	3.1535252	100.5545	99.9777	6.917422	30.64734
988	7.23218	3.1534758	100.8252	100.2469	6.917432	30.64655
989	7.23208	3.1534759	101.0748	100.4950	6.917450	30.64653
990	7.23155	3.1534759	101.3367	100.7553	6.917519	30.64687
991	7.23077	3.1534637	101.5956	101.0126	6.917625	30.64732
992	7.22983	3.1534204	101.8545	101.2699	6.917766	30.64757
993	7.22894	3.1534205	102.1161	101.5300	6.917879	30.64825
994	7.22858	3.1534454	102.3688	101.7812	6.917916	30.64872
995	7.22795	3.1534454	102.6336	102.0444	6.917998	30.64916
996	7.22727	3.1532723	102.8926	102.3019	6.918169	30.64779
997	7.22539	3.1534209	103.1574	102.5650	6.918332	30.65093
998	7.22466	3.1534457	103.4101	102.8162	6.918414	30.65173
999	7.22492	3.1534458	103.6598	103.0644	6.918387	30.65139
1000	7.22424	3.1534459	103.9306	103.3336	6.918475	30.65187
1001	7.22330	3.1532418	104.1742	103.5758	6.918693	30.65040
1002	7.22131	3.1531801	104.4297	103.8298	6.918969	30.65138
1003	7.21902	3.1530874	104.6825	104.0810	6.919299	30.65231
1004	7.21687	3.1531493	104.9503	104.3473	6.919535	30.65476
1005	7.21593	3.1531804	105.2060	104.6014	6.919640	30.65581
1006	7.21557	3.1532114	105.4710	104.8648	6.919675	30.65635
1007	7.21567	3.1532115	105.7389	105.1311	6.919667	30.65614
1008	7.21536	3.1532115	105.9976	105.3883	6.919710	30.65630
1009	7.21536	3.1532425	106.2444	105.6335	6.919700	30.65652
1010	7.21531	3.1533725	106.4938	105.8814	6.919649	30.65786
1011	7.21567	3.1532984	106.7404	106.1265	6.919645	30.65663
1012	7.21578	3.1532984	106.9840	106.3687	6.919637	30.65643
1013	7.21620	3.1532676	107.2336	106.6168	6.919606	30.65561
1014	7.21646	3.1532676	107.5076	106.8892	6.919580	30.65526
1015	7.21620	3.1532430	107.7693	107.1493	6.919629	30.65511
1016	7.21599	3.1532431	108.0374	107.4158	6.919660	30.65518
1017	7.21562	3.1532679	108.2962	107.6730	6.919697	30.65565
1018	7.21520	3.1532680	108.5305	107.9059	6.919753	30.65592
1019	7.21505	3.1529712	108.8104	108.1841	6.919921	30.65274
1020	7.21505	3.1533424	109.1059	108.4778	6.919748	30.65660
1021	7.21510	3.1532435	109.3890	108.7592	6.919795	30.65537
1022	7.21421	3.1532992	109.6354	109.0042	6.919881	30.65664
1023	7.21343	3.1532684	109.8882	109.2554	6.919996	30.65689
1024	7.21317	3.1532994	110.1652	109.5308	6.920018	30.65733
1025	7.21301	3.1532747	110.4271	109.7911	6.920055	30.65709
1026	7.21264	3.1532439	110.6797	110.0421	6.920119	30.65697
1027	7.21191	3.1532131	110.9356	110.2965	6.920228	30.65717
1028	7.21045	3.1531513	111.2093	110.5686	6.920441	30.65768
1029	7.20914	3.1532751	111.4773	110.8349	6.920546	30.66005
1030	7.20847	3.1537824	111.7301	111.0862	6.920389	30.66600
1031	7.20946	3.1545929	112.0041	111.3586	6.919882	30.67372
1032	7.21176	3.1542341	112.2477	111.6007	6.919781	30.66771
1033	7.21254	3.1544136	112.5217	111.8730	6.919604	30.66883
1034	7.21311	3.1543889	112.7862	112.1360	6.919551	30.66794
1035	7.21358	3.1541416	113.0482	112.3964	6.919619	30.66474
1036	7.21337	3.1544448	113.3100	112.6566	6.919503	30.66807
1037	7.21353	3.1540798	113.5688	112.9138	6.919665	30.66389
1038	7.21296	3.1540552	113.8367	113.1801	6.919752	30.66402
1039	7.21165	3.1536285	114.1016	113.4434	6.920123	30.66046
1040	7.20941	3.1534801	114.3664	113.7066	6.920473	30.66074
1041	7.20726	3.1536039	114.6220	113.9607	6.920679	30.66386
1042	7.20648	3.1541731	114.8778	114.2149	6.920505	30.67056
1043	7.20779	3.1542350	115.1396	114.4751	6.920321	30.66995
1044	7.20920	3.1541980	115.3892	114.7232	6.920172	30.66819
1045	7.21019	3.1548353	115.6512	114.9836	6.919749	30.67405
1046	7.21238	3.1554045	115.9036	115.2345	6.919212	30.67812
1047	7.21567	3.1556149	116.1747	115.5039	6.918716	30.67735
1048	7.21823	3.1552747	116.4276	115.7553	6.918574	30.67131
1049	7.21860	3.1554047	116.6952	116.0213	6.918472	30.67226
1050	7.21922	3.1557636	116.9570	116.2816	6.918228	30.67545
1051	7.22079	3.1563082	117.2188	116.5418	6.917779	30.67980
1052	7.22299	3.1562464	117.4776	116.7990	6.917547	30.67708
1053	7.22434	3.1562588	117.7393	117.0591	6.917381	30.67589
1054	7.22487	3.1559742	117.9953	117.3135	6.917460	30.67225
1055	7.22377	3.1553123	118.2446	117.5613	6.917918	30.66599
1056	7.22053	3.1553433	118.4974	117.8126	6.918302	30.66909
1057	7.21750	3.1553744	118.7745	118.0880	6.918661	30.67198
1058	7.21562	3.1551208	119.0850	118.3966	6.919019	30.67078
1059	7.21390	3.1552570	119.3409	118.6510	6.919168	30.67366
1060	7.21290	3.1552262	119.5993	118.9078	6.919309	30.67409
1061	7.21207	3.1557646	119.8461	119.1531	6.919156	30.68052
1062	7.21327	3.1557089	120.1078	119.4132	6.919041	30.67874
1063	7.21416	3.1554986	120.3817	119.6855	6.919040	30.67557
1064	7.21364	3.1555544	120.6375	119.9397	6.919082	30.67652
1065	7.21296	3.1557339	120.8902	120.1909	6.919083	30.67894
1066	7.21317	3.1555546	121.1521	120.4512	6.919150	30.67671
1067	7.21322	3.1556475	121.4110	120.7085	6.919104	30.67754
1068	7.21311	3.1554681	121.6576	120.9536	6.919208	30.67560
1069	7.21243	3.1555857	121.9192	121.2136	6.919239	30.67735
1070	7.21207	3.1556168	122.1718	121.4647	6.919273	30.67789
1071	7.21191	3.1555550	122.4338	121.7250	6.919327	30.67725
1072	7.21082	3.1553138	122.6984	121.9881	6.919583	30.67551
1073	7.20836	3.1548313	122.9632	122.2513	6.920120	30.67238
1074	7.20356	3.1546273	123.2099	122.4965	6.920808	30.67433
1075	7.20011	3.1544727	123.4717	122.7567	6.921307	30.67561
1076	7.19844	3.1539965	123.7274	123.0108	6.921746	30.67185
1077	7.19510	3.1534398	123.9832	123.2650	6.922427	30.66871
1078	7.18873	3.1537555	124.2449	123.5251	6.923056	30.67763
1079	7.18565	3.1536628	124.5037	123.7824	6.923481	30.67925
1080	7.18414	3.1534835	124.7565	124.0337	6.923757	30.67855
1081	7.18142	3.1535145	125.0091	124.2847	6.924078	30.68118
1082	7.17996	3.1535703	125.2708	124.5448	6.924234	30.68296
1083	7.17955	3.1535766	125.5296	124.8020	6.924287	30.68328
1084	7.17887	3.1532179	125.8066	125.0773	6.924549	30.67990
1085	7.17631	3.1532737	126.0533	125.3225	6.924838	30.68266
1086	7.17469	3.1533047	126.3151	125.5827	6.925026	30.68431
1087	7.17407	3.1532800	126.5614	125.8276	6.925119	30.68449
1088	7.17349	3.1533048	126.8110	126.0756	6.925182	30.68516
1089	7.17355	3.1533977	127.0611	126.3242	6.925136	30.68600
1090	7.17386	3.1533668	127.3105	126.5721	6.925117	30.68528
1091	7.17360	3.1533051	127.5722	126.8321	6.925184	30.68473
1092	7.17339	3.1532495	127.8278	127.0862	6.925242	30.68420
1093	7.17271	3.1531259	128.0959	127.3527	6.925389	30.68335
1094	7.17208	3.1532744	128.3545	127.6097	6.925399	30.68539
1095	7.17208	3.1531879	128.6499	127.9033	6.925447	30.68433
1096	7.17177	3.1530952	128.9330	128.1846	6.925536	30.68348
1097	7.17073	3.1530087	129.1949	128.4450	6.925710	30.68336
1098	7.16953	3.1530088	129.4355	128.6841	6.925861	30.68432
1099	7.16869	3.1530089	129.6972	128.9441	6.925968	30.68494
1100	7.16822	3.1530089	129.9529	129.1984	6.926030	30.68524
1101	7.16781	3.1530647	130.1931	129.4371	6.926059	30.68611
1102	7.16775	3.1530400	130.4369	129.6794	6.926082	30.68578
1103	7.16760	3.1530092	130.6925	129.9334	6.926121	30.68547
1104	7.16744	3.1530649	130.9544	130.1937	6.926119	30.68610
1105	7.16728	3.1530403	131.2102	130.4480	6.926155	30.68586
1106	7.16708	3.1530651	131.4597	130.6958	6.926173	30.68620
1107	7.16692	3.1530404	131.7154	130.9501	6.926209	30.68596
1108	7.16666	3.1529477	131.9561	131.1892	6.926291	30.68508
1109	7.16588	3.1528859	132.2025	131.4342	6.926421	30.68500
1110	7.16525	3.1529664	132.4613	131.6913	6.926463	30.68631
1111	7.16525	3.1530098	132.7048	131.9333	6.926447	30.68667
1112	7.16546	3.1530655	132.9666	132.1936	6.926400	30.68697
1113	7.16582	3.1530100	133.2222	132.4476	6.926388	30.68593
1114	7.16593	3.1530100	133.4810	132.7047	6.926380	30.68572
1115	7.16582	3.1531276	133.7279	132.9502	6.926341	30.68697
1116	7.16619	3.1528555	133.9926	133.2133	6.926433	30.68360
1117	7.16337	3.1518970	134.2452	133.4643	6.927246	30.67566
1118	7.15211	3.1515694	134.5040	133.7215	6.928784	30.68201
1119	7.14017	3.1522561	134.7383	133.9544	6.929913	30.69991
1120	7.13605	3.1511987	134.9910	134.2055	6.930933	30.69206
1121	7.12844	3.1509391	135.2409	134.4538	6.931992	30.69590
1122	7.12072	3.1507909	135.4934	134.7048	6.933011	30.70104
1123	7.11505	3.1509703	135.7520	134.9619	6.933623	30.70791
1124	7.11140	3.1511003	135.9987	135.2070	6.934010	30.71244
1125	7.11004	3.1510880	136.2393	135.4462	6.934187	30.71341
1126	7.10921	3.1513602	136.4947	135.7000	6.934161	30.71697
1127	7.10968	3.1513293	136.7291	135.9329	6.934124	30.71612
1128	7.11020	3.1514222	136.9938	136.1960	6.934020	30.71654
1129	7.11046	3.1513542	137.2377	136.4384	6.934027	30.71546
1130	7.11036	3.1512677	137.4750	136.6743	6.934086	30.71452
1131	7.10968	3.1510576	137.7339	136.9315	6.934276	30.71274
1132	7.10796	3.1508474	138.0048	137.2007	6.934593	30.71188
1133	7.10567	3.1508475	138.2940	137.4882	6.934879	30.71379
1134	7.10405	3.1508785	138.5585	137.7511	6.935067	30.71544
1135	7.10322	3.1508477	138.8145	138.0055	6.935188	30.71573
1136	7.10244	3.1507612	139.0673	138.2568	6.935331	30.71538
1137	7.10181	3.1507613	139.3168	138.5047	6.935412	30.71583
1138	7.10119	3.1506934	139.5665	138.7529	6.935527	30.71554
1139	7.10067	3.1506130	139.8038	138.9887	6.935634	30.71503
1140	7.09994	3.1506997	140.0475	139.2309	6.935686	30.71650
1141	7.09957	3.1504339	140.3032	139.4850	6.935865	30.71385
1142	7.09827	3.1501619	140.5649	139.7451	6.936161	30.71195
1143	7.09603	3.1500569	140.8177	139.9964	6.936491	30.71270
1144	7.09359	3.1499210	141.0673	140.2444	6.936861	30.71330
1145	7.09166	3.1498345	141.3046	140.4803	6.937143	30.71397
1146	7.09004	3.1498346	141.5511	140.7252	6.937345	30.71530
1147	7.08916	3.1498347	141.8008	140.9733	6.937459	30.71597
1148	7.08853	3.1499831	142.0381	141.2092	6.937468	30.71802
1149	7.08853	3.1497421	142.2971	141.4666	6.937590	30.71531
1150	7.08770	3.1492908	142.5496	141.7176	6.937916	30.71106
1151	7.08520	3.1492353	142.7841	141.9506	6.938253	30.71258
1152	7.08203	3.1483513	143.0306	142.1955	6.939076	30.70576
1153	7.07604	3.1476159	143.2769	142.4404	6.940171	30.70303
1154	7.06844	3.1474059	143.5392	142.7010	6.941208	30.70740
1155	7.06282	3.1474060	143.7916	142.9519	6.941901	30.71229
1156	7.05918	3.1473381	144.0349	143.1937	6.942384	30.71469
1157	7.05673	3.1472269	144.2787	143.4360	6.942743	30.71555
1158	7.05476	3.1473136	144.5222	143.6780	6.942947	30.71814
1159	7.05398	3.1471962	144.7720	143.9262	6.943105	30.71746
1160	7.05294	3.1471098	145.0244	144.1771	6.943280	30.71733
1161	7.05184	3.1470233	145.2649	144.4160	6.943460	30.71727
1162	7.05054	3.1470172	145.5115	144.6612	6.943627	30.71825
1163	7.04961	3.1467763	145.7611	144.9092	6.943864	30.71637
1164	7.04721	3.1465971	146.0047	145.1513	6.944250	30.71645
1165	7.04373	3.1466467	146.2422	145.3872	6.944657	30.71998
1166	7.04149	3.1466282	146.4981	145.6416	6.944945	30.72166
1167	7.04040	3.1465418	146.7476	145.8896	6.945126	30.72158
1168	7.03905	3.1465666	146.9944	146.1348	6.945284	30.72295
1169	7.03832	3.1465420	147.2346	146.3736	6.945390	30.72322
1170	7.03754	3.1463937	147.4994	146.6367	6.945563	30.72219
1171	7.03572	3.1459983	147.7853	146.9209	6.945985	30.71941
1172	7.03099	3.1456091	148.0474	147.1813	6.946759	30.71930
1173	7.02381	3.1455536	148.2940	147.4264	6.947670	30.72498
1174	7.01815	3.1454796	148.5376	147.6684	6.948406	30.72912
1175	7.01420	3.1451954	148.7841	147.9134	6.949034	30.72945
1176	7.00993	3.1448928	149.0184	148.1462	6.949708	30.72987
1177	7.00437	3.1447137	149.2558	148.3822	6.950482	30.73278
1178	6.99918	3.1444976	149.5025	148.6274	6.951230	30.73496
1179	6.99466	3.1444730	149.7461	148.8695	6.951801	30.73862
1180	6.99185	3.1442939	149.9989	149.1206	6.952238	30.73906
1181	6.98889	3.1438800	150.2604	149.3806	6.952809	30.73711
1182	6.98500	3.1436762	150.5134	149.6319	6.953391	30.73826
1183	6.98105	3.1436393	150.7538	149.8709	6.953898	30.74127
1184	6.97809	3.1434911	151.0003	150.1158	6.954339	30.74220
1185	6.97549	3.1434294	151.2499	150.3639	6.954693	30.74373
1186	6.97352	3.1433677	151.5118	150.6242	6.954971	30.74471
1187	6.97196	3.1432072	151.7675	150.8783	6.955245	30.74425
1188	6.96952	3.1431579	152.0291	151.1383	6.955574	30.74577
1189	6.96750	3.1431333	152.2818	151.3894	6.955840	30.74720
1190	6.96599	3.1431334	152.5284	151.6345	6.956030	30.74843
1191	6.96485	3.1431087	152.7870	151.8915	6.956187	30.74907
1192	6.96386	3.1431335	153.0489	152.1517	6.956302	30.75010
1193	6.96345	3.1431583	153.3106	152.4117	6.956346	30.75062
1194	6.96298	3.1431584	153.5756	152.6751	6.956408	30.75092
1195	6.96241	3.1432079	153.8311	152.9290	6.956460	30.75185
1196	6.96194	3.1431895	154.0900	153.1863	6.956531	30.75195
1197	6.96142	3.1431340	154.3428	153.4375	6.956627	30.75170
1198	6.96033	3.1431340	154.6106	153.7037	6.956766	30.75255
1199	6.95945	3.1431094	154.8663	153.9578	6.956892	30.75296
1200	6.95836	3.1431033	155.1279	154.2177	6.957034	30.75375
1201	6.95717	3.1430725	155.3807	154.4690	6.957201	30.75436
1202	6.95561	3.1425660	155.6455	154.7321	6.957645	30.75015
1203	6.95073	3.1418743	155.9073	154.9923	6.958588	30.74689
1204	6.94228	3.1416583	156.1631	155.2464	6.959738	30.75198
1205	6.93455	3.1412199	156.4277	155.5094	6.960909	30.75402
1206	6.92640	3.1408618	156.6956	155.7757	6.962090	30.75728
1207	6.91774	3.1403247	156.9604	156.0388	6.963424	30.75908
1208	6.90831	3.1402075	157.2497	156.3263	6.964648	30.76610
1209	6.90069	3.1401151	157.5511	156.6258	6.965637	30.77177
1210	6.89587	3.1400843	157.8343	156.9072	6.966251	30.77562
1211	6.89276	3.1400227	158.1052	157.1764	6.966669	30.77761
1212	6.89068	3.1398622	158.3822	157.4517	6.967009	30.77759
1213	6.88783	3.1396956	158.6560	157.7238	6.967447	30.77821
1214	6.88410	3.1395784	158.9300	157.9961	6.967970	30.78015
1215	6.87980	3.1381707	159.1946	158.2590	6.969196	30.76860
1216	6.86437	3.1378807	159.4657	158.5284	6.971245	30.77913
1217	6.84806	3.1381711	159.7368	158.7978	6.973118	30.79675
1218	6.84019	3.1371588	160.0198	159.0790	6.974591	30.79267
1219	6.82891	3.1365355	160.2878	159.3454	6.976295	30.79588
1220	6.81551	3.1370604	160.5557	159.6116	6.977695	30.81346
1221	6.80941	3.1361778	160.8296	159.8838	6.978889	30.80921
1222	6.80000	3.1356965	161.0884	160.1410	6.980293	30.81230
1223	6.78863	3.1356103	161.3592	160.4101	6.981745	30.82143
1224	6.78072	3.1355796	161.6330	160.6822	6.982742	30.82806
1225	6.77607	3.1356106	161.9072	160.9546	6.983307	30.83245
1226	6.77343	3.1356416	162.1720	161.2177	6.983623	30.83503
1227	6.77245	3.1356108	162.4459	161.4900	6.983765	30.83545
1228	6.77188	3.1354874	162.7077	161.7501	6.983901	30.83450
1229	6.77049	3.1354629	162.9788	162.0195	6.984092	30.83536
1230	6.76909	3.1355802	163.2588	162.2977	6.984212	30.83777
1231	6.76873	3.1354630	163.5479	162.5851	6.984320	30.83669
1232	6.76811	3.1354570	163.8067	162.8422	6.984405	30.83706
1233	6.76759	3.1354632	164.0930	163.1267	6.984472	30.83746
1234	6.76744	3.1356114	164.3576	163.3896	6.984423	30.83909
1235	6.76821	3.1356424	164.6316	163.6619	6.984318	30.83861
1236	6.76966	3.1357288	164.9085	163.9371	6.984102	30.83813
1237	6.77142	3.1357906	165.1765	164.2034	6.983860	30.83710
1238	6.77271	3.1356426	165.4505	164.4756	6.983779	30.83421
1239	6.77235	3.1355809	165.7122	164.7357	6.983859	30.83375
1240	6.77126	3.1356427	165.9741	164.9960	6.983968	30.83527
1241	6.77023	3.1353404	166.2450	165.2651	6.984251	30.83279
1242	6.76702	3.1353714	166.5251	165.5435	6.984637	30.83587
1243	6.76392	3.1352974	166.7958	165.8125	6.985062	30.83773
1244	6.76181	3.1352852	167.0699	166.0849	6.985336	30.83937
1245	6.75995	3.1344768	167.3379	166.3511	6.985971	30.83212
1246	6.75179	3.1337611	167.6240	166.6355	6.987339	30.83152
1247	6.73821	3.1336626	167.9162	166.9258	6.989074	30.84251
1248	6.72773	3.1335579	168.1959	167.2038	6.990427	30.85065
1249	6.72107	3.1334963	168.4732	167.4793	6.991287	30.85584
1250	6.71679	3.1333792	168.7380	167.7424	6.991881	30.85829
1251	6.71400	3.1333176	169.0091	168.0118	6.992262	30.86000
1252	6.71209	3.1334349	169.2797	168.2808	6.992445	30.86287
1253	6.71152	3.1337929	169.5539	168.5532	6.992344	30.86716
1254	6.71230	3.1340337	169.8278	168.8254	6.992134	30.86896
1255	6.71276	3.1341695	170.1078	169.1036	6.992015	30.86990
1256	6.71214	3.1342128	170.3786	169.3727	6.992076	30.87081
1257	6.71194	3.1341820	170.6618	169.6541	6.992123	30.87053
1258	6.71173	3.1342130	170.9298	169.9205	6.992138	30.87093
1259	6.71116	3.1342316	171.1944	170.1834	6.992205	30.87152
1260	6.71059	3.1342440	171.4565	170.4438	6.992274	30.87205
1261	6.70998	3.1342132	171.7426	170.7281	6.992372	30.87214
1262	6.70936	3.1342442	172.0164	171.0002	6.992439	30.87291
1263	6.70879	3.1342011	172.2874	171.2695	6.992536	30.87283
1264	6.70802	3.1341826	172.5704	171.5506	6.992647	30.87320
1265	6.70729	3.1340655	172.8504	171.8289	6.992800	30.87244
1266	6.70564	3.1337940	173.1154	172.0922	6.993144	30.87085
1267	6.70208	3.1335844	173.3772	172.3523	6.993694	30.87164
1268	6.69863	3.1334055	173.6572	172.6306	6.994217	30.87267
1269	6.69527	3.1332267	173.9310	172.9026	6.994726	30.87362
1270	6.69166	3.1332268	174.1960	173.1660	6.995179	30.87674
1271	6.68940	3.1331714	174.4699	173.4382	6.995493	30.87806
1272	6.68738	3.1330789	174.7407	173.7072	6.995793	30.87873
1273	6.68542	3.1328692	175.0176	173.9824	6.996146	30.87808
1274	6.68269	3.1328508	175.2949	174.2579	6.996499	30.88022
1275	6.68017	3.1324252	175.5566	174.5180	6.997029	30.87773
1276	6.67620	3.1322772	175.8306	174.7902	6.997600	30.87956
1277	6.67254	3.1321601	176.1104	175.0682	6.998117	30.88145
1278	6.66955	3.1321603	176.4333	175.3891	6.998494	30.88400
1279	6.66759	3.1321604	176.7590	175.7127	6.998744	30.88561
1280	6.66666	3.1323086	177.0632	176.0150	6.998791	30.88793
1281	6.66707	3.1323395	177.3433	176.2933	6.998731	30.88777
1282	6.66743	3.1322840	177.5928	176.5413	6.998719	30.88672
1283	6.66718	3.1322471	177.8485	176.7953	6.998774	30.88644
1284	6.66666	3.1320991	178.1256	177.0706	6.998917	30.88516
1285	6.66496	3.1317167	178.4148	177.3580	6.999324	30.88239
1286	6.66104	3.1310567	178.7286	177.6699	7.000144	30.87857
1287	6.65383	3.1311741	179.0178	177.9572	7.000986	30.88621
1288	6.64899	3.1306992	179.3006	178.2382	7.001829	30.88526
1289	6.64281	3.1305267	179.5716	178.5075	7.002687	30.88882
1290	6.63704	3.1302801	179.8395	178.7736	7.003531	30.89120
1291	6.63245	3.1299841	180.1074	179.0399	7.004253	30.89197
1292	6.62725	3.1299287	180.3812	179.3119	7.004931	30.89593
1293	6.62324	3.1298363	180.6492	179.5782	7.005482	30.89842
1294	6.62077	3.1300461	180.9232	179.8505	7.005689	30.90281
1295	6.62046	3.1301943	181.2032	180.1287	7.005660	30.90458
1296	6.62138	3.1294233	181.4896	180.4133	7.005935	30.89519
1297	6.61716	3.1291089	181.7786	180.7004	7.006621	30.89543
1298	6.61037	3.1290351	182.0677	180.9877	7.007508	30.90062
1299	6.60481	3.1287083	182.3416	181.2599	7.008367	30.90193
1300	6.59961	3.1287023	182.6246	181.5410	7.009021	30.90642
1301	6.59606	3.1284126	182.9106	181.8252	7.009613	30.90633
1302	6.59236	3.1282339	183.1969	182.1097	7.010168	30.90758
1303	6.58819	3.1281723	183.4740	182.3850	7.010723	30.91054
1304	6.58516	3.1282033	183.7356	182.6450	7.011090	30.91350
1305	6.58361	3.1281725	183.9947	182.9023	7.011302	30.91444
1306	6.58279	3.1280246	184.2654	183.1714	7.011484	30.91344
1307	6.58145	3.1281419	184.5421	183.4463	7.011597	30.91580
1308	6.58114	3.1282345	184.8315	183.7339	7.011595	30.91696
1309	6.58125	3.1282346	185.0995	184.0001	7.011588	30.91675
1310	6.58156	3.1282346	185.3854	184.2842	7.011556	30.91634
1311	6.58181	3.1284567	185.6473	184.5445	7.011418	30.91842
1312	6.58310	3.1284383	185.9090	184.8045	7.011273	30.91694
1313	6.58444	3.1284692	186.1800	185.0737	7.011097	30.91595
1314	6.58490	3.1285001	186.4631	185.3551	7.011030	30.91574
1315	6.58521	3.1284200	186.7369	185.6270	7.011037	30.91446
1316	6.58490	3.1284694	187.0077	185.8962	7.011057	30.91516
1317	6.58459	3.1284387	187.2759	186.1626	7.011116	30.91498
1318	6.58392	3.1283216	187.5557	186.4406	7.011263	30.91417
1319	6.58310	3.1282970	187.8328	186.7159	7.011384	30.91452
1320	6.58217	3.1282909	188.1068	186.9882	7.011507	30.91516
1321	6.58166	3.1282910	188.3899	187.2695	7.011577	30.91550
1322	6.58120	3.1282048	188.6640	187.5418	7.011683	30.91485
1323	6.57981	3.1280815	188.9380	187.8141	7.011923	30.91463
1324	6.57796	3.1279953	189.2302	188.1044	7.012202	30.91522
1325	6.57616	3.1279954	189.5377	188.4100	7.012433	30.91671
1326	6.57518	3.1279524	189.8327	188.7031	7.012582	30.91699
1327	6.57405	3.1279340	190.1096	188.9782	7.012737	30.91768
1328	6.57338	3.1279649	190.3867	189.2535	7.012811	30.91850
1329	6.57276	3.1279341	190.6636	189.5287	7.012908	30.91859
1330	6.57240	3.1279219	190.9438	189.8070	7.012965	30.91865
1331	6.57230	3.1280576	191.2271	190.0886	7.012916	30.92010
1332	6.57256	3.1279097	191.5071	190.3668	7.012964	30.91813
1333	6.57209	3.1279221	191.7779	190.6358	7.013021	30.91856
1334	6.57127	3.1279346	192.0610	190.9170	7.013123	30.91931
1335	6.57122	3.1279963	192.3412	191.1955	7.013104	30.91990
1336	6.57112	3.1278792	192.6211	191.4736	7.013181	30.91859
1337	6.57024	3.1277992	192.8982	191.7489	7.013336	30.91837
1338	6.56896	3.1277561	193.1688	192.0178	7.013523	30.91894
1339	6.56788	3.1277562	193.4399	192.2872	7.013662	30.91979
1340	6.56721	3.1277994	193.7138	192.5593	7.013730	30.92074
1341	6.56695	3.1277317	193.9939	192.8375	7.013801	30.92011
1342	6.56649	3.1277318	194.2738	193.1156	7.013864	30.92040
1343	6.56597	3.1278182	194.5569	193.3970	7.013891	30.92168
1344	6.56618	3.1278306	194.8279	193.6662	7.013865	30.92151
1345	6.56633	3.1278184	195.1140	193.9505	7.013858	30.92110
1346	6.56628	3.1277876	195.3818	194.2166	7.013885	30.92069
1347	6.56587	3.1277569	195.6741	194.5070	7.013958	30.92059
1348	6.56536	3.1278001	195.9482	194.7793	7.014006	30.92141
1349	6.56515	3.1277571	196.2345	195.0637	7.014059	30.92099
1350	6.56505	3.1278188	196.5112	195.3387	7.014046	30.92163
1351	6.56510	3.1279546	196.7943	195.6199	7.013978	30.92294
1352	6.56603	3.1279115	197.0710	195.8949	7.013890	30.92151
1353	6.56623	3.1278499	197.3361	196.1583	7.013901	30.92053
1354	6.56592	3.1278191	197.6101	196.4305	7.013960	30.92035
1355	6.56551	3.1278315	197.8843	196.7029	7.014011	30.92073
1356	6.56495	3.1277576	198.1611	196.9779	7.014124	30.92031
1357	6.56423	3.1277577	198.4381	197.2532	7.014219	30.92083
1358	6.56376	3.1278503	198.7028	197.5162	7.014236	30.92214
1359	6.56387	3.1279244	198.9801	197.7917	7.014192	30.92274
1360	6.56443	3.1279121	199.2509	198.0607	7.014133	30.92197
1361	6.56448	3.1278814	199.5370	198.3449	7.014148	30.92146
1362	6.56407	3.1278630	199.8200	198.6262	7.014214	30.92150
1363	6.56376	3.1278199	200.1123	198.9166	7.014280	30.92117
1364	6.56310	3.1278817	200.4012	199.2036	7.014339	30.92232
1365	6.56330	3.1280297	200.6874	199.4880	7.014245	30.92362
1366	6.56448	3.1279866	200.9581	199.7569	7.014125	30.92196
1367	6.56489	3.1279991	201.2415	200.0384	7.014074	30.92160
1368	6.56500	3.1279991	201.5216	200.3167	7.014067	30.92138
1369	6.56500	3.1277896	201.7893	200.5827	7.014177	30.91896
1370	6.56387	3.1280178	202.0663	200.8579	7.014209	30.92236
1371	6.56387	3.1281166	202.3527	201.1425	7.014166	30.92331
1372	6.56484	3.1280303	202.6383	201.4263	7.014093	30.92135
1373	6.56495	3.1279256	202.9095	201.6957	7.014139	30.91999
1374	6.56438	3.1280613	203.1864	201.9708	7.014147	30.92186
1375	6.56438	3.1276112	203.4606	202.2433	7.014377	30.91681
1376	6.56068	3.1265138	203.7315	202.5124	7.015392	30.90802
1377	6.55096	3.1260763	204.0115	202.7906	7.016826	30.91187
1378	6.54058	3.1257435	204.2946	203.0718	7.018290	30.91747
1379	6.53164	3.1256204	204.5715	203.3470	7.019471	30.92407
1380	6.52543	3.1255096	204.8547	203.6283	7.020306	30.92834
1381	6.52101	3.1254419	205.1317	203.9034	7.020896	30.93146
1382	6.51793	3.1253557	205.4118	204.1817	7.021329	30.93317
1383	6.51582	3.1253250	205.6919	204.4600	7.021612	30.93461
1384	6.51428	3.1252265	205.9748	204.7411	7.021860	30.93479
1385	6.51285	3.1249676	206.2579	205.0224	7.022174	30.93313
1386	6.50992	3.1244623	206.5314	205.2941	7.022798	30.93011
1387	6.50509	3.1245857	206.7997	205.5607	7.023343	30.93570
1388	6.50217	3.1244749	207.0767	205.8359	7.023769	30.93701
1389	6.49996	3.1242839	207.3568	206.1142	7.024146	30.93678
1390	6.49719	3.1241114	207.6368	206.3924	7.024584	30.93727
1391	6.49385	3.1240067	207.9046	206.6584	7.025058	30.93902
1392	6.49129	3.1240500	208.1786	206.9306	7.025362	30.94169
1393	6.48995	3.1239885	208.4619	207.2121	7.025565	30.94209
1394	6.48862	3.1238714	208.7384	207.4867	7.025796	30.94189
1395	6.48723	3.1237544	209.0159	207.7624	7.026033	30.94173
1396	6.48508	3.1236929	209.2927	208.0375	7.026339	30.94288
1397	6.48328	3.1236622	209.5605	208.3036	7.026584	30.94404
1398	6.48179	3.1235698	209.8372	208.5784	7.026822	30.94425
1399	6.48025	3.1235761	210.1237	208.8631	7.027016	30.94558
1400	6.47912	3.1236070	210.4098	209.1473	7.027148	30.94681
1401	6.47861	3.1236071	210.7233	209.4588	7.027218	30.94713
1402	6.47846	3.1236627	211.0217	209.7552	7.027216	30.94775
1403	6.47866	3.1238723	211.2926	210.0244	7.027090	30.94974
1404	6.48020	3.1238416	211.5635	210.2935	7.026919	30.94788
1405	6.48118	3.1237862	211.8314	210.5597	7.026831	30.94627
1406	6.48169	3.1239033	212.1143	210.8407	7.026714	30.94696
1407	6.48241	3.1239034	212.3884	211.1130	7.026630	30.94619
1408	6.48308	3.1239035	212.6624	211.3853	7.026553	30.94546
1409	6.48287	3.1236940	212.9395	211.6606	7.026689	30.94323
1410	6.48118	3.1236325	213.2254	211.9446	7.026937	30.94395
1411	6.47882	3.1234292	213.5085	212.2259	7.027340	30.94373
1412	6.47558	3.1233800	213.7795	212.4951	7.027773	30.94599
1413	6.47287	3.1233370	214.0502	212.7640	7.028140	30.94785
1414	6.47097	3.1233679	214.3275	213.0394	7.028367	30.94978
1415	6.46969	3.1232817	214.6043	213.3145	7.028576	30.94987
1416	6.46830	3.1231647	214.8815	213.5899	7.028813	30.94972
1417	6.46589	3.1229553	215.1494	213.8561	7.029225	30.94948
1418	6.46266	3.1229246	215.4414	214.1461	7.029650	30.95193
1419	6.46015	3.1229432	215.7215	214.4244	7.029960	30.95428
1420	6.45845	3.1228940	215.9954	214.6965	7.030202	30.95515
1421	6.45707	3.1229249	216.2725	214.9718	7.030365	30.95661
1422	6.45661	3.1229558	216.5497	215.2471	7.030413	30.95724
1423	6.45645	3.1229744	216.8357	215.5314	7.030429	30.95746
1424	6.45645	3.1229806	217.1035	215.7973	7.030431	30.95740
1425	6.45676	3.1230423	217.3742	216.0663	7.030367	30.95768
1426	6.45717	3.1230362	217.6514	216.3417	7.030325	30.95711
1427	6.45712	3.1230117	217.9282	216.6167	7.030349	30.95677
1428	6.45707	3.1230734	218.1961	216.8828	7.030330	30.95737
1429	6.45758	3.1231043	218.4612	217.1462	7.030256	30.95712
1430	6.45794	3.1230982	218.7473	217.4304	7.030221	30.95660
1431	6.45830	3.1232523	219.0180	217.6994	7.030104	30.95784
1432	6.45948	3.1232832	219.2859	217.9654	7.029947	30.95699
1433	6.46097	3.1233819	219.5539	218.2317	7.029717	30.95661
1434	6.46220	3.1233696	219.8276	218.5036	7.029575	30.95523
1435	6.46297	3.1234313	220.1015	218.7758	7.029454	30.95509
1436	6.46363	3.1234314	220.3696	219.0420	7.029376	30.95437
1437	6.46415	3.1234438	220.6526	219.3232	7.029312	30.95391
1438	6.46425	3.1234008	220.9629	219.6315	7.029327	30.95320
1439	6.46399	3.1234009	221.2584	219.9250	7.029365	30.95330
1440	6.46327	3.1232284	221.5597	220.2244	7.029548	30.95192
1441	6.46097	3.1231360	221.8246	220.4875	7.029888	30.95288
1442	6.45825	3.1230129	222.1046	220.7657	7.030295	30.95386
1443	6.45594	3.1230130	222.3786	221.0379	7.030589	30.95582
1444	6.45374	3.1226926	222.6586	221.3161	7.031031	30.95418
1445	6.45056	3.1224524	222.9207	221.5764	7.031554	30.95430
1446	6.44630	3.1223601	223.1911	221.8451	7.032138	30.95701
1447	6.44312	3.1223171	223.4621	222.1143	7.032562	30.95929
1448	6.44061	3.1222124	223.7299	222.3803	7.032934	30.96030
1449	6.43815	3.1220338	224.0070	222.6556	7.033337	30.96044
1450	6.43595	3.1220339	224.2749	222.9218	7.033618	30.96231
1451	6.43426	3.1221018	224.5094	223.1547	7.033800	30.96448
1452	6.43359	3.1220649	224.7164	223.3604	7.033906	30.96458
1453	6.43318	3.1220341	224.8290	223.4722	7.033975	30.96457
1454	6.43272	3.1220711	224.8625	223.5055	7.034015	30.96537
1455	6.43221	3.1221266	224.8383	223.4814	7.034050	30.96646
1456	6.43262	3.1221820	224.7984	223.4418	7.033970	30.96671
1457	6.43313	3.1221635	224.7987	223.4421	7.033916	30.96605
1458	6.43344	3.1221574	224.8290	223.4722	7.033881	30.96569
1459	6.43369	3.1220957	224.8688	223.5118	7.033881	30.96476
1460	6.43323	3.1219787	224.8960	223.5388	7.033998	30.96388
1461	6.43226	3.1219417	224.8995	223.5422	7.034138	30.96436
1462	6.43144	3.1219479	224.9114	223.5541	7.034238	30.96516
1463	6.43113	3.1219479	224.9180	223.5606	7.034276	30.96544
1464	6.43072	3.1219109	224.9299	223.5725	7.034346	30.96540
1465	6.43046	3.1218863	224.9421	223.5846	7.034391	30.96535
1466	6.43005	3.1218863	224.9421	223.5846	7.034442	30.96572
1467	6.42980	3.1219171	224.9146	223.5572	7.034458	30.96631
1468	6.42980	3.1219725	224.8631	223.5061	7.034429	30.96694
1469	6.43026	3.1220341	224.8326	223.4758	7.034340	30.96721
1470	6.43098	3.1221266	224.7994	223.4428	7.034203	30.96759
1471	6.43159	3.1220403	224.7687	223.4123	7.034169	30.96610
1472	6.43174	3.1219787	224.7596	223.4033	7.034181	30.96529
1473	6.43144	3.1219478	224.7294	223.3733	7.034234	30.96524
1474	6.43108	3.1219786	224.6779	223.3221	7.034262	30.96593
1475	6.43103	3.1220402	224.5894	223.2342	7.034236	30.96669
1476	6.43144	3.1220957	224.4861	223.1316	7.034155	30.96698
1477	6.43185	3.1220648	224.3795	223.0257	7.034117	30.96631
1478	6.43231	3.1220401	224.2701	222.9169	7.034069	30.96568
1479	6.43262	3.1221264	224.1818	222.8293	7.033985	30.96638
1480	6.43287	3.1221818	224.0755	222.7237	7.033923	30.96681
1481	6.43359	3.1221817	223.9446	222.5937	7.033831	30.96622
1482	6.43405	3.1221940	223.7894	222.4395	7.033764	30.96601
1483	6.43472	3.1222433	223.6128	222.2640	7.033652	30.96602
1484	6.43538	3.1223048	223.4303	222.0827	7.033534	30.96618
1485	6.43595	3.1223479	223.2174	221.8712	7.033438	30.96624
1486	6.43666	3.1223601	223.0075	221.6626	7.033337	30.96582
1487	6.43738	3.1224217	222.7852	221.4418	7.033212	30.96595
1488	6.43830	3.1224832	222.5661	221.2241	7.033061	30.96589
1489	6.43974	3.1226311	222.3349	220.9945	7.032803	30.96631
1490	6.44184	3.1226864	222.0942	220.7554	7.032508	30.96513
1491	6.44394	3.1227788	221.8480	220.5108	7.032194	30.96435
1492	6.44594	3.1229143	221.5802	220.2447	7.031870	30.96415
1493	6.44820	3.1230128	221.3245	219.9908	7.031534	30.96331
1494	6.45071	3.1230743	221.0661	219.7340	7.031184	30.96182
1495	6.45307	3.1230434	220.8193	219.4889	7.030899	30.95946
1496	6.45440	3.1230679	220.5851	219.2562	7.030716	30.95863
1497	6.45512	3.1229816	220.3295	219.0023	7.030664	30.95715
1498	6.45502	3.1228644	220.0772	218.7516	7.030731	30.95607
1499	6.45389	3.1228212	219.8275	218.5035	7.030888	30.95673
1500	6.45292	3.1228335	219.5780	218.2557	7.030998	30.95786
1501	6.45261	3.1229813	219.3254	218.0047	7.030957	30.95988
1502	6.45394	3.1231045	219.0636	217.7446	7.030723	30.96014
1503	6.45609	3.1231352	218.8111	217.4938	7.030434	30.95865
1504	6.45784	3.1231351	218.5557	217.2401	7.030211	30.95718
1505	6.45917	3.1231597	218.2969	216.9830	7.030027	30.95637
1506	6.45999	3.1231657	218.0443	216.7320	7.029916	30.95580
1507	6.46056	3.1231348	217.7854	216.4748	7.029856	30.95507
1508	6.46066	3.1231348	217.5180	216.2092	7.029837	30.95510
1509	6.46107	3.1230730	217.2530	215.9459	7.029812	30.95417
1510	6.46076	3.1230052	216.9976	215.6921	7.029879	30.95382
1511	6.46015	3.1229805	216.7479	215.4441	7.029963	30.95422
1512	6.45933	3.1229557	216.5046	215.2024	7.030073	30.95480
1513	6.45861	3.1228817	216.2614	214.9608	7.030194	30.95475
1514	6.45763	3.1228940	216.0114	214.7124	7.030305	30.95588
1515	6.45707	3.1228939	215.7651	214.4677	7.030370	30.95650
1516	6.45697	3.1229247	215.5095	214.2138	7.030362	30.95705
1517	6.45743	3.1229739	215.2599	213.9658	7.030274	30.95729
1518	6.45809	3.1229553	215.0104	213.7179	7.030195	30.95659
1519	6.45881	3.1229552	214.7546	213.4638	7.030100	30.95606
1520	6.45943	3.1230044	214.5085	213.2194	7.029994	30.95615
1521	6.46030	3.1231338	214.2589	212.9713	7.029815	30.95690
1522	6.46220	3.1233063	214.0061	212.7202	7.029486	30.95719
1523	6.46538	3.1235095	213.7659	212.4816	7.028982	30.95665
1524	6.46927	3.1235464	213.5133	212.2306	7.028472	30.95364
1525	6.47240	3.1236079	213.2668	211.9857	7.028045	30.95160
1526	6.47451	3.1236078	213.0170	211.7375	7.027778	30.94981
1527	6.47620	3.1236632	212.7677	211.4898	7.027533	30.94900
1528	6.47774	3.1236939	212.5216	211.2453	7.027321	30.94806
1529	6.47871	3.1236630	212.2717	210.9971	7.027209	30.94695
1530	6.47954	3.1236630	212.0192	210.7462	7.027102	30.94632
1531	6.48000	3.1236629	211.7606	210.4893	7.027039	30.94602
1532	6.48020	3.1236628	211.4989	210.2294	7.027008	30.94595
1533	6.48030	3.1236627	211.2494	209.9814	7.026990	30.94597
1534	6.48066	3.1236935	211.0058	209.7394	7.026925	30.94610
1535	6.48118	3.1236934	210.7745	209.5096	7.026856	30.94574
1536	6.48154	3.1236625	210.5403	209.2770	7.026822	30.94518
1537	6.48205	3.1236932	210.3090	209.0472	7.026737	30.94516
1538	6.48231	3.1236624	210.0747	208.8144	7.026716	30.94469
1539	6.48256	3.1236931	209.8525	208.5936	7.026664	30.94490
1540	6.48287	3.1236622	209.6458	208.3882	7.026637	30.94438
1541	6.48308	3.1236930	209.4356	208.1795	7.026591	30.94462
1542	6.48374	3.1238100	209.2106	207.9560	7.026445	30.94541
1543	6.48477	3.1239024	208.9916	207.7384	7.026266	30.94559
1544	6.48636	3.1239578	208.7725	207.5206	7.026035	30.94486
1545	6.48769	3.1239454	208.5532	207.3028	7.025870	30.94362
1546	6.48872	3.1240192	208.3313	207.0823	7.025701	30.94360
1547	6.48964	3.1241363	208.1118	206.8643	7.025522	30.94415
1548	6.49123	3.1241917	207.8871	206.6411	7.025291	30.94342
1549	6.49272	3.1242594	207.6707	206.4260	7.025067	30.94291
1550	6.49401	3.1242285	207.4486	206.2054	7.024918	30.94152
1551	6.49462	3.1241976	207.2328	205.9909	7.024852	30.94072
1552	6.49483	3.1241914	207.0195	205.7790	7.024825	30.94056
1553	6.49483	3.1242283	206.8066	205.5675	7.024802	30.94106
1554	6.49503	3.1241974	206.5907	205.3530	7.024788	30.94064
1555	6.49519	3.1241912	206.3745	205.1382	7.024767	30.94053
1556	6.49539	3.1243144	206.1583	204.9234	7.024675	30.94179
1557	6.49647	3.1244931	205.9361	204.7027	7.024447	30.94288
1558	6.49852	3.1246101	205.7081	204.4761	7.024127	30.94241
1559	6.50114	3.1246655	205.4828	204.2523	7.023769	30.94075
1560	6.50314	3.1247332	205.2698	204.0407	7.023481	30.93978
1561	6.50448	3.1248811	205.0384	203.8107	7.023235	30.94030
1562	6.50612	3.1250104	204.8164	203.5902	7.022961	30.94033
1563	6.50797	3.1250288	204.6062	203.3814	7.022717	30.93896
1564	6.50936	3.1250288	204.3905	203.1671	7.022540	30.93780
1565	6.51043	3.1249979	204.1834	202.9614	7.022417	30.93658
1566	6.51079	3.1249793	203.9676	202.7469	7.022377	30.93615
1567	6.51120	3.1250286	203.7423	202.5231	7.022296	30.93642
1568	6.51172	3.1250901	203.5261	202.3083	7.022197	30.93673
1569	6.51285	3.1251640	203.2978	202.0814	7.022014	30.93663
1570	6.51403	3.1251763	203.0790	201.8640	7.021856	30.93579
1571	6.51495	3.1252378	202.8567	201.6432	7.021706	30.93573
1572	6.51598	3.1252932	202.6375	201.4255	7.021546	30.93551
1573	6.51706	3.1253548	202.4245	201.2138	7.021376	30.93531
1574	6.51865	3.1256198	202.1995	200.9902	7.021040	30.93688
1575	6.52132	3.1258602	201.9713	200.7635	7.020582	30.93720
1576	6.52507	3.1262916	201.7398	200.5335	7.019894	30.93864
1577	6.53046	3.1267477	201.5148	200.3100	7.018990	30.93887
1578	6.53735	3.1269573	201.3046	200.1012	7.018024	30.93504
1579	6.54310	3.1269880	201.0765	199.8745	7.017287	30.93028
1580	6.54649	3.1269817	200.8480	199.6475	7.016863	30.92725
1581	6.54850	3.1271357	200.6291	199.4300	7.016532	30.92723
1582	6.55060	3.1273453	200.4102	199.2125	7.016161	30.92772
1583	6.55323	3.1275240	200.2001	199.0038	7.015741	30.92741
1584	6.55636	3.1277028	199.9962	198.8012	7.015257	30.92662
1585	6.55939	3.1277582	199.7833	198.5897	7.014848	30.92459
1586	6.56176	3.1277889	199.5610	198.3688	7.014534	30.92289
1587	6.56345	3.1278320	199.3449	198.1541	7.014297	30.92193
1588	6.56459	3.1278813	199.1166	197.9273	7.014127	30.92155
1589	6.56546	3.1278195	198.8917	197.7039	7.014044	30.92019
1590	6.56577	3.1277578	198.6694	197.4830	7.014032	30.91934
1591	6.56556	3.1278009	198.4474	197.2624	7.014032	30.92009
1592	6.56541	3.1277330	198.2282	197.0446	7.014080	30.91959
1593	6.56515	3.1277329	198.0123	196.8301	7.014108	30.91992
1594	6.56489	3.1277020	197.7993	196.6185	7.014151	30.91991
1595	6.56474	3.1275786	197.5860	196.4066	7.014227	30.91880
1596	6.56366	3.1274306	197.3760	196.1979	7.014431	30.91825
1597	6.56186	3.1273751	197.1601	195.9834	7.014678	30.91936
1598	6.56063	3.1275168	196.9470	195.7716	7.014756	30.92212
1599	6.56073	3.1275538	196.7248	195.5509	7.014720	30.92253
1600	6.56145	3.1275845	196.4967	195.3243	7.014611	30.92232
1601	6.56212	3.1276399	196.2746	195.1036	7.014495	30.92243
1602	6.56304	3.1276707	196.0465	194.8770	7.014360	30.92203
1603	6.56412	3.1277014	195.8211	194.6531	7.014206	30.92150
1604	6.56474	3.1277014	195.6020	194.4353	7.014125	30.92104
1605	6.56531	3.1277321	195.3858	194.2205	7.014034	30.92096
1606	6.56572	3.1277321	195.1668	194.0029	7.013979	30.92069
1607	6.56618	3.1277012	194.9538	193.7913	7.013932	30.92003
1608	6.56618	3.1276394	194.7349	193.5738	7.013959	30.91946
1609	6.56567	3.1276085	194.5155	193.3559	7.014033	30.91968
1610	6.56520	3.1275530	194.2935	193.1352	7.014114	30.91959
1611	6.56469	3.1275838	194.0773	192.9204	7.014158	30.92049
1612	6.56474	3.1276700	193.8552	192.6997	7.014104	30.92149
1613	6.56541	3.1277686	193.6331	192.4791	7.013967	30.92207
1614	6.56664	3.1277870	193.4141	192.2615	7.013800	30.92125
1615	6.56777	3.1278178	193.1948	192.0436	7.013639	30.92067
1616	6.56885	3.1278917	192.9878	191.8380	7.013464	30.92060
1617	6.57029	3.1279656	192.7658	191.6173	7.013243	30.92021
1618	6.57168	3.1279655	192.5498	191.4027	7.013066	30.91905
1619	6.57250	3.1279655	192.3275	191.1819	7.012959	30.91841
1620	6.57302	3.1279222	192.0750	190.9310	7.012912	30.91759
1621	6.57322	3.1279345	191.8283	190.6859	7.012875	30.91765
1622	6.57322	3.1279098	191.6155	190.4744	7.012883	30.91747
1623	6.57322	3.1278172	191.3962	190.2566	7.012925	30.91656
1624	6.57286	3.1278295	191.1802	190.0420	7.012959	30.91712
1625	6.57230	3.1278479	190.9610	189.8241	7.013015	30.91793
1626	6.57209	3.1278170	190.7391	189.6037	7.013052	30.91788
1627	6.57225	3.1278293	190.5138	189.3798	7.013022	30.91798
1628	6.57235	3.1278169	190.3070	189.1744	7.013011	30.91784
1629	6.57235	3.1278168	190.0907	188.9594	7.013006	30.91794
1630	6.57235	3.1277859	189.8685	188.7387	7.013017	30.91770
1631	6.57209	3.1277673	189.6465	188.5180	7.013054	30.91783
1632	6.57194	3.1277303	189.4306	188.3035	7.013087	30.91766
1633	6.57168	3.1277302	189.2023	188.0767	7.013114	30.91800
1634	6.57178	3.1277548	188.9892	187.8650	7.013085	30.91827
1635	6.57184	3.1277979	188.7702	187.6474	7.013052	30.91880
1636	6.57245	3.1279643	188.5541	187.4327	7.012888	30.92016
1637	6.57425	3.1282911	188.3382	187.2182	7.012497	30.92221
1638	6.57852	3.1288029	188.1130	186.9944	7.011706	30.92405
1639	6.58521	3.1290926	187.8937	186.7765	7.010726	30.92129
1640	6.59153	3.1291541	187.6715	186.5558	7.009904	30.91636
1641	6.59611	3.1292157	187.4554	186.3410	7.009300	30.91300
1642	6.59910	3.1292711	187.2425	186.1294	7.008897	30.91101
1643	6.60121	3.1293019	187.0204	185.9088	7.008615	30.90954
1644	6.60270	3.1293018	186.8073	185.6970	7.008425	30.90829
1645	6.60373	3.1293325	186.5822	185.4734	7.008278	30.90780
1646	6.60460	3.1293325	186.3754	185.2679	7.008165	30.90711
1647	6.60532	3.1293941	186.1622	185.0561	7.008040	30.90723
1648	6.60574	3.1293632	185.9461	184.8413	7.008000	30.90662
1649	6.60630	3.1294248	185.7210	184.6177	7.007894	30.90688
1650	6.60702	3.1294494	185.5050	184.4030	7.007788	30.90660
1651	6.60779	3.1294801	185.2919	184.1913	7.007672	30.90634
1652	6.60867	3.1295726	185.0820	183.9828	7.007513	30.90665
1653	6.60970	3.1295848	184.8689	183.7710	7.007375	30.90596
1654	6.61063	3.1296033	184.6588	183.5623	7.007246	30.90542
1655	6.61150	3.1295724	184.4399	183.3448	7.007149	30.90439
1656	6.61201	3.1295723	184.2175	183.1238	7.007080	30.90403
1657	6.61243	3.1296154	183.9985	182.9061	7.007003	30.90423
1658	6.61289	3.1296585	183.7824	182.6914	7.006919	30.90438
1659	6.61356	3.1297509	183.5572	182.4677	7.006786	30.90489
1660	6.61474	3.1298681	183.3410	182.2529	7.006576	30.90520
1661	6.61654	3.1299543	183.1189	182.0322	7.006305	30.90462
1662	6.61845	3.1299542	182.8998	181.8145	7.006064	30.90300
1663	6.61958	3.1298987	182.6776	181.5937	7.005946	30.90147
1664	6.61999	3.1298677	182.4650	181.3824	7.005906	30.90086
1665	6.61999	3.1298985	182.2426	181.1614	7.005886	30.90130
1666	6.61994	3.1298985	182.0265	180.9467	7.005888	30.90144
1667	6.61994	3.1298059	181.7861	180.7079	7.005929	30.90054
1668	6.61953	3.1297379	181.5337	180.4571	7.006009	30.90028
1669	6.61871	3.1297194	181.3112	180.2360	7.006116	30.90092
1670	6.61819	3.1297502	181.0953	180.0215	7.006160	30.90182
1671	6.61793	3.1297193	180.8732	179.8008	7.006203	30.90181
1672	6.61768	3.1297377	180.6417	179.5707	7.006221	30.90235
1673	6.61763	3.1296883	180.4226	179.3531	7.006247	30.90196
1674	6.61763	3.1296882	180.1884	179.1203	7.006242	30.90206
1675	6.61793	3.1298362	179.9204	178.8541	7.006125	30.90352
1676	6.61927	3.1300458	179.6406	178.5760	7.005848	30.90474
1677	6.62205	3.1301937	179.3998	178.3368	7.005425	30.90396
1678	6.62530	3.1304033	179.1840	178.1223	7.004913	30.90342
1679	6.62864	3.1305883	178.9772	177.9168	7.004401	30.90252
1680	6.63256	3.1307301	178.7579	177.6990	7.003841	30.90064
1681	6.63647	3.1309397	178.5238	177.4663	7.003246	30.89951
1682	6.64023	3.1310568	178.3045	177.2484	7.002717	30.89750
1683	6.64353	3.1310876	178.0793	177.0246	7.002288	30.89497
1684	6.64621	3.1312355	177.8665	176.8131	7.001878	30.89427
1685	6.64842	3.1314452	177.6410	176.5891	7.001494	30.89467
1686	6.65177	3.1317165	177.4220	176.3715	7.000939	30.89471
1687	6.65625	3.1319200	177.1999	176.1508	7.000278	30.89300
1688	6.66058	3.1320063	176.9807	175.9330	6.999694	30.89014
1689	6.66388	3.1320370	176.7554	175.7091	6.999265	30.88761
1690	6.66615	3.1320925	176.5301	175.4853	6.998952	30.88627
1691	6.66769	3.1320985	176.3112	175.2678	6.998752	30.88505
1692	6.66862	3.1321293	176.0771	175.0351	6.998617	30.88466
1693	6.66939	3.1321601	175.8670	174.8264	6.998502	30.88439
1694	6.66991	3.1321230	175.6478	174.6085	6.998452	30.88362
1695	6.67047	3.1321291	175.4284	174.3906	6.998374	30.88328
1696	6.67094	3.1322154	175.2125	174.1761	6.998269	30.88390
1697	6.67130	3.1321845	174.9814	173.9464	6.998235	30.88334
1698	6.67181	3.1322523	174.7590	173.7254	6.998133	30.88372
1699	6.67238	3.1322460	174.5371	173.5049	6.998061	30.88324
1700	6.67274	3.1322151	174.3209	173.2901	6.998028	30.88268
1701	6.67269	3.1322151	174.0897	173.0603	6.998029	30.88283
1702	6.67269	3.1321903	173.8613	172.8334	6.998037	30.88266
1703	6.67285	3.1323075	173.6331	172.6067	6.997955	30.88390
1704	6.67357	3.1323074	173.4171	172.3920	6.997861	30.88335
1705	6.67424	3.1325048	173.2010	172.1773	6.997675	30.88500
1706	6.67614	3.1328132	172.9881	171.9657	6.997281	30.88674
1707	6.67975	3.1330229	172.7659	171.7449	6.996726	30.88588
1708	6.68357	3.1331709	172.5408	171.5213	6.996175	30.88417
1709	6.68692	3.1332263	172.3152	171.2971	6.995728	30.88186
1710	6.68940	3.1332879	172.0995	171.0827	6.995386	30.88040
1711	6.69136	3.1333804	171.8741	170.8587	6.995093	30.87975
1712	6.69326	3.1334358	171.6367	170.6229	6.994824	30.87874
1713	6.69507	3.1334789	171.3838	170.3716	6.994574	30.87770
1714	6.69662	3.1335282	171.1558	170.1450	6.994353	30.87695
1715	6.69811	3.1335837	170.9368	169.9274	6.994136	30.87631
1716	6.69961	3.1336453	170.7268	169.7187	6.993916	30.87573
1717	6.70100	3.1336946	170.5044	169.4977	6.993715	30.87512
1718	6.70239	3.1337068	170.2824	169.2771	6.993532	30.87410
1719	6.70342	3.1337932	170.0604	169.0565	6.993357	30.87421
1720	6.70461	3.1338239	169.8410	168.8385	6.993190	30.87358
1721	6.70575	3.1338547	169.6161	168.6150	6.993030	30.87300
1722	6.70678	3.1338546	169.3936	168.3939	6.992897	30.87217
1723	6.70740	3.1338546	169.1686	168.1703	6.992816	30.87172
1724	6.70786	3.1339100	168.9402	167.9434	6.992726	30.87201
1725	6.70848	3.1339161	168.7241	167.7286	6.992642	30.87161
1726	6.70925	3.1339407	168.5021	167.5080	6.992530	30.87129
1727	6.70998	3.1338851	168.2830	167.2904	6.992463	30.87013
1728	6.71111	3.1338542	168.0547	167.0635	6.992334	30.86888
1729	6.71240	3.1338233	167.8356	166.8457	6.992185	30.86748
1730	6.71379	3.1338232	167.6102	166.6218	6.992008	30.86633
1731	6.71498	3.1338231	167.3850	166.3980	6.991856	30.86536
1732	6.71586	3.1337922	167.1629	166.1773	6.991759	30.86434
1733	6.71648	3.1337612	166.9344	165.9502	6.991693	30.86355
1734	6.71715	3.1337056	166.7063	165.7236	6.991632	30.86244
1735	6.71730	3.1337056	166.4906	165.5092	6.991609	30.86240
1736	6.71756	3.1336931	166.2652	165.2852	6.991579	30.86213
1737	6.71766	3.1336746	166.0458	165.0673	6.991570	30.86194
1738	6.71797	3.1335264	165.8300	164.8528	6.991601	30.86014
1739	6.71792	3.1334338	165.6018	164.6260	6.991649	30.85928
1740	6.71766	3.1333782	165.3853	164.4109	6.991704	30.85900
1741	6.71751	3.1333472	165.1699	164.1968	6.991734	30.85890
1742	6.71772	3.1334027	164.9355	163.9639	6.991676	30.85943
1743	6.71895	3.1335569	164.7221	163.7518	6.991442	30.86009
1744	6.72174	3.1337604	164.4939	163.5251	6.990992	30.85991
1745	6.72613	3.1338838	164.2748	163.3073	6.990383	30.85741
1746	6.73031	3.1338219	164.0497	163.0837	6.989892	30.85308
1747	6.73227	3.1337293	163.8305	162.8658	6.989691	30.85041
1748	6.73253	3.1337601	163.6142	162.6509	6.989639	30.85061
1749	6.73320	3.1339390	163.3924	162.4305	6.989463	30.85206
1750	6.73557	3.1344202	163.1670	162.2065	6.988926	30.85527
1751	6.74187	3.1347780	162.9327	161.9736	6.987966	30.85362
1752	6.74951	3.1348890	162.7105	161.7528	6.986961	30.84806
1753	6.75581	3.1349567	162.4820	161.5258	6.986144	30.84325
1754	6.76015	3.1350430	162.2662	161.3113	6.985561	30.84039
1755	6.76305	3.1350491	162.0498	161.0964	6.985196	30.83796
1756	6.76547	3.1351354	161.8279	160.8758	6.984849	30.83682
1757	6.76739	3.1351909	161.5936	160.6430	6.984581	30.83581
1758	6.76925	3.1352217	161.3593	160.4102	6.984331	30.83458
1759	6.77105	3.1352648	161.1277	160.1800	6.984081	30.83353
1760	6.77224	3.1352832	160.9056	159.9593	6.983921	30.83277
1761	6.77317	3.1353387	160.6866	159.7417	6.983774	30.83264
1762	6.77395	3.1353386	160.4580	159.5145	6.983674	30.83204
1763	6.77467	3.1353262	160.2361	159.2940	6.983586	30.83136
1764	6.77503	3.1353385	160.0110	159.0703	6.983530	30.83127
1765	6.77524	3.1352829	159.7827	158.8434	6.983528	30.83058
1766	6.77483	3.1352211	159.5605	158.6226	6.983605	30.83038
1767	6.77390	3.1351408	159.3382	158.4017	6.983755	30.83044
1768	6.77250	3.1350420	159.1161	158.1810	6.983971	30.83072
1769	6.77136	3.1350728	158.8972	157.9634	6.984092	30.83217
1770	6.77059	3.1350727	158.6779	157.7456	6.984183	30.83297
1771	6.77018	3.1350788	158.4557	157.5247	6.984227	30.83350
1772	6.77054	3.1353133	158.2306	157.3010	6.984062	30.83583
1773	6.77364	3.1356650	158.0084	157.0802	6.983500	30.83698
1774	6.77958	3.1362636	157.7834	156.8567	6.982466	30.83826
1775	6.79012	3.1372203	157.5641	156.6387	6.980687	30.83931
1776	6.80729	3.1380535	157.3480	156.4239	6.978154	30.83308
1777	6.82782	3.1385040	157.1290	156.2063	6.975395	30.81966
1778	6.84552	3.1387692	156.8975	155.9762	6.973078	30.80680
1779	6.85831	3.1389172	156.6725	155.7527	6.971425	30.79706
1780	6.86691	3.1390097	156.4500	155.5316	6.970316	30.79047
1781	6.87302	3.1391578	156.2251	155.3081	6.969486	30.78672
1782	6.87752	3.1392503	156.0028	155.0872	6.968881	30.78379
1783	6.88063	3.1392317	155.7774	154.8632	6.968503	30.78091
1784	6.88239	3.1393057	155.5523	154.6395	6.968245	30.78024
1785	6.88390	3.1393056	155.3271	154.4157	6.968056	30.77900
1786	6.88483	3.1393055	155.1052	154.1951	6.967936	30.77826
1787	6.88540	3.1392931	154.8796	153.9710	6.967868	30.77772
1788	6.88581	3.1394289	154.6637	153.7564	6.967746	30.77892
1789	6.88695	3.1396635	154.4352	153.5294	6.967485	30.78055
1790	6.88996	3.1399042	154.2101	153.3056	6.966993	30.78057
1791	6.89385	3.1401449	153.9788	153.0758	6.966392	30.77981
1792	6.89851	3.1404721	153.7537	152.8521	6.965652	30.77930
1793	6.90478	3.1409476	153.5316	152.6314	6.964643	30.77895
1794	6.91219	3.1410710	153.3062	152.4074	6.963666	30.77376
1795	6.91805	3.1411882	153.0842	152.1868	6.962884	30.76990
1796	6.92272	3.1413363	152.8619	151.9659	6.962233	30.76743
1797	6.92635	3.1414844	152.6396	151.7450	6.961709	30.76590
1798	6.92962	3.1416079	152.4114	151.5182	6.961243	30.76442
1799	6.93309	3.1417869	152.1895	151.2977	6.960723	30.76336
1800	6.93698	3.1419350	151.9551	151.0647	6.960168	30.76159
1801	6.94067	3.1420523	151.7389	150.8499	6.959653	30.75967
1802	6.94388	3.1421449	151.5013	150.6137	6.959208	30.75791
1803	6.94643	3.1422004	151.2641	150.3780	6.958864	30.75635
1804	6.94902	3.1421632	151.0296	150.1450	6.958558	30.75374
1805	6.95032	3.1421755	150.8106	149.9273	6.958389	30.75281
1806	6.95120	3.1422310	150.5855	149.7036	6.958249	30.75273
1807	6.95213	3.1423236	150.3571	149.4767	6.958084	30.75300
1808	6.95364	3.1423235	150.1289	149.2499	6.957894	30.75176
1809	6.95504	3.1423234	149.9127	149.0350	6.957718	30.75060
1810	6.95592	3.1423542	149.6938	148.8174	6.957590	30.75025
1811	6.95649	3.1423850	149.4682	148.5933	6.957500	30.75017
1812	6.95717	3.1423850	149.2493	148.3757	6.957413	30.74967
1813	6.95790	3.1423849	149.0208	148.1486	6.957319	30.74912
1814	6.95873	3.1424404	148.7896	147.9189	6.957185	30.74908
1815	6.95914	3.1424094	148.5585	147.6892	6.957145	30.74848
1816	6.95976	3.1424155	148.3332	147.4654	6.957061	30.74809
1817	6.95997	3.1423846	148.1050	147.2385	6.957046	30.74768
1818	6.96013	3.1423845	147.8796	147.0145	6.957022	30.74764
1819	6.96044	3.1424400	147.6607	146.7970	6.956952	30.74806
1820	6.96101	3.1425079	147.4414	146.5790	6.956845	30.74838
1821	6.96205	3.1426499	147.2314	146.3703	6.956643	30.74909
1822	6.96361	3.1427672	147.0033	146.1436	6.956390	30.74907
1823	6.96553	3.1428289	146.7839	145.9256	6.956120	30.74813
1824	6.96708	3.1428288	146.5650	145.7081	6.955924	30.74683
1825	6.96817	3.1429214	146.3334	145.4779	6.955740	30.74697
1826	6.96973	3.1430696	146.1051	145.2511	6.955472	30.74728
1827	6.97155	3.1433970	145.8771	145.0245	6.955084	30.74931
1828	6.97492	3.1436934	145.6425	144.7913	6.954520	30.74961
1829	6.97928	3.1438663	145.4143	144.5646	6.953896	30.74770
1830	6.98370	3.1439959	145.1830	144.3347	6.953286	30.74527
1831	6.98744	3.1441132	144.9637	144.1168	6.952766	30.74330
1832	6.99066	3.1442367	144.7387	143.8931	6.952306	30.74187
1833	6.99367	3.1445579	144.5288	143.6845	6.951775	30.74275
1834	6.99850	3.1448297	144.3034	143.4605	6.951046	30.74149
1835	7.00365	3.1448913	144.0782	143.2367	6.950380	30.73767
1836	7.00754	3.1450395	143.8528	143.0127	6.949826	30.73590
1837	7.01134	3.1451259	143.6308	142.7921	6.949314	30.73355
1838	7.01472	3.1452803	143.3995	142.5622	6.948820	30.73232
1839	7.01783	3.1454903	143.1713	142.3354	6.948331	30.73191
1840	7.02163	3.1456385	142.9429	142.1084	6.947789	30.73024
1841	7.02516	3.1457868	142.7178	141.8847	6.947279	30.72879
1842	7.02865	3.1458855	142.4956	141.6639	6.946799	30.72686
1843	7.03203	3.1461203	142.2672	141.4369	6.946266	30.72649
1844	7.03525	3.1461758	142.0480	141.2190	6.945840	30.72431
1845	7.03801	3.1463302	141.8229	140.9954	6.945423	30.72363
1846	7.04024	3.1466453	141.5976	140.7714	6.944991	30.72514
1847	7.04357	3.1468059	141.3449	140.5203	6.944500	30.72403
1848	7.04701	3.1472261	141.0896	140.2666	6.943870	30.72563
1849	7.05091	3.1473743	140.8489	140.0273	6.943315	30.72386
1850	7.05434	3.1475288	140.6421	139.8218	6.942816	30.72257
1851	7.05725	3.1477326	140.4077	139.5889	6.942355	30.72228
1852	7.05991	3.1477016	140.1825	139.3651	6.942041	30.71969
1853	7.06168	3.1476768	139.9542	139.1381	6.941832	30.71795
1854	7.06282	3.1478251	139.7198	138.9052	6.941615	30.71864
1855	7.06386	3.1479363	139.4943	138.6811	6.941429	30.71901
1856	7.06521	3.1480907	139.2631	138.4513	6.941184	30.71958
1857	7.06667	3.1482143	139.0318	138.2215	6.940941	30.71972
1858	7.06849	3.1483935	138.8035	137.9946	6.940626	30.72014
1859	7.07026	3.1485108	138.5844	137.7768	6.940348	30.71993
1860	7.07193	3.1486035	138.3592	137.5530	6.940095	30.71955
1861	7.07370	3.1487209	138.1402	137.3353	6.939817	30.71934
1862	7.07521	3.1487826	137.9148	137.1113	6.939598	30.71876
1863	7.07661	3.1488443	137.6837	136.8816	6.939391	30.71828
1864	7.07771	3.1489494	137.4581	136.6575	6.939202	30.71854
1865	7.07875	3.1489926	137.2302	136.4310	6.939049	30.71819
1866	7.08010	3.1490234	137.0047	136.2068	6.938864	30.71741
1867	7.08125	3.1490542	136.7642	135.9678	6.938704	30.71684
1868	7.08213	3.1490480	136.5331	135.7381	6.938594	30.71608
1869	7.08276	3.1490788	136.3078	135.5142	6.938498	30.71596
1870	7.08317	3.1490540	136.0857	135.2935	6.938455	30.71542
1871	7.08395	3.1491405	135.8633	135.0724	6.938313	30.71576
1872	7.08463	3.1491404	135.6381	134.8487	6.938226	30.71526
1873	7.08510	3.1491403	135.4037	134.6157	6.938164	30.71495
1874	7.08551	3.1491712	135.1786	134.3920	6.938093	30.71501
1875	7.08630	3.1493813	134.9505	134.1653	6.937891	30.71669
1876	7.08838	3.1497089	134.7189	133.9350	6.937473	30.71847
1877	7.09249	3.1500241	134.4907	133.7083	6.936812	30.71832
1878	7.09780	3.1501600	134.2624	133.4814	6.936093	30.71516
1879	7.10348	3.1504567	134.0401	133.2605	6.935251	30.71342
1880	7.10978	3.1507286	133.8059	133.0277	6.934344	30.71085
1881	7.11583	3.1509078	133.5838	132.8069	6.933514	30.70751
1882	7.12135	3.1510066	133.3648	132.5893	6.932788	30.70377
1883	7.12583	3.1512106	133.1453	132.3712	6.932137	30.70208
1884	7.13005	3.1514764	132.9169	132.1442	6.931488	30.70130
1885	7.13474	3.1516866	132.6981	131.9266	6.930809	30.69949
1886	7.13954	3.1518410	132.4725	131.7025	6.930145	30.69700
1887	7.14361	3.1519213	132.2414	131.4728	6.929605	30.69436
1888	7.14689	3.1520449	132.0130	131.2458	6.929140	30.69288
1889	7.14945	3.1521376	131.7819	131.0161	6.928778	30.69171
1890	7.15169	3.1521684	131.5566	130.7922	6.928485	30.69015
1891	7.15325	3.1521436	131.3190	130.5561	6.928302	30.68860
1892	7.15435	3.1522548	131.0544	130.2931	6.928109	30.68894
1893	7.15539	3.1523166	130.8076	130.0478	6.927947	30.68879
1894	7.15654	3.1523165	130.5856	129.8272	6.927803	30.68787
1895	7.15758	3.1523783	130.3664	129.6092	6.927641	30.68771
1896	7.15831	3.1523658	130.1382	129.3824	6.927554	30.68703
1897	7.15878	3.1523472	129.9099	129.1555	6.927501	30.68651
1898	7.15863	3.1523162	129.6846	128.9317	6.927530	30.68642
1899	7.15847	3.1523471	129.4595	128.7079	6.927530	30.68699
1900	7.15878	3.1523779	129.2342	128.4840	6.927472	30.68715
1901	7.15920	3.1523346	129.0059	128.2571	6.927438	30.68641
1902	7.15936	3.1523469	128.7716	128.0242	6.927408	30.68651
1903	7.15951	3.1523468	128.5311	127.7852	6.927384	30.68648
1904	7.15946	3.1523158	128.3028	127.5583	6.927401	30.68629
1905	7.15925	3.1522353	128.0716	127.3285	6.927461	30.68571
1906	7.15883	3.1522291	127.8311	127.0895	6.927510	30.68612
1907	7.15821	3.1522290	127.6057	126.8654	6.927582	30.68678
1908	7.15774	3.1521980	127.3896	126.6507	6.927650	30.68696
1909	7.15737	3.1521980	127.1706	126.4330	6.927690	30.68738
1910	7.15701	3.1521732	126.9513	126.2151	6.927742	30.68753
1911	7.15670	3.1521669	126.7231	125.9882	6.927779	30.68784
1912	7.15623	3.1521050	126.5010	125.7675	6.927861	30.68769
1913	7.15586	3.1521359	126.2695	125.5375	6.927886	30.68845
1914	7.15565	3.1521049	126.0290	125.2983	6.927922	30.68841
1915	7.15539	3.1520801	125.8008	125.0715	6.927961	30.68848
1916	7.15534	3.1520738	125.5725	124.8446	6.927966	30.68856
1917	7.15524	3.1520737	125.3380	124.6116	6.927974	30.68875
1918	7.15487	3.1520737	125.0976	124.3727	6.928014	30.68919
1919	7.15466	3.1520798	124.8695	124.1459	6.928032	30.68954
1920	7.15451	3.1520426	124.6471	123.9249	6.928064	30.68938
1921	7.15435	3.1520735	124.4217	123.7009	6.928064	30.68995
1922	7.15435	3.1520734	124.1935	123.4741	6.928060	30.69005
1923	7.15456	3.1520733	123.9684	123.2503	6.928030	30.68996
1924	7.15456	3.1520176	123.7432	123.0265	6.928052	30.68946
1925	7.15451	3.1520175	123.5150	122.7997	6.928054	30.68961
1926	7.15440	3.1520422	123.2835	122.5697	6.928050	30.69007
1927	7.15461	3.1521349	123.0522	122.3397	6.927975	30.69099
1928	7.15534	3.1521658	122.8177	122.1067	6.927866	30.69078
1929	7.15628	3.1521719	122.5925	121.8828	6.927744	30.69011
1930	7.15685	3.1521038	122.3552	121.6470	6.927703	30.68897
1931	7.15696	3.1520728	122.1301	121.4232	6.927700	30.68865
1932	7.15680	3.1520727	121.8984	121.1930	6.927715	30.68889
1933	7.15680	3.1520479	121.6733	120.9692	6.927722	30.68872
1934	7.15670	3.1520416	121.4481	120.7454	6.927734	30.68885
1935	7.15680	3.1520725	121.2291	120.5277	6.927702	30.68918
1936	7.15706	3.1520415	120.9825	120.2826	6.927680	30.68873
1937	7.15711	3.1520414	120.7298	120.0314	6.927668	30.68879
1938	7.15737	3.1520475	120.4925	119.7956	6.927629	30.68874
1939	7.15763	3.1521031	120.2824	119.5868	6.927566	30.68920
1940	7.15831	3.1521340	120.0358	119.3416	6.927463	30.68904
1941	7.15925	3.1521648	119.7922	119.0996	6.927329	30.68864
1942	7.16009	3.1522513	119.5550	118.8638	6.927181	30.68894
1943	7.16123	3.1523935	119.3205	118.6307	6.926967	30.68956
1944	7.16280	3.1526161	119.0952	118.4068	6.926664	30.69067
1945	7.16530	3.1531850	118.8579	118.1709	6.926079	30.69468
1946	7.17010	3.1535436	118.6298	117.9442	6.925316	30.69439
1947	7.17563	3.1542611	118.4071	117.7228	6.924290	30.69730
1948	7.18273	3.1547435	118.1822	117.4993	6.923188	30.69630
1949	7.19030	3.1549846	117.9690	117.2874	6.922146	30.69227
1950	7.19646	3.1554362	117.7406	117.0604	6.921173	30.69177
1951	7.20272	3.1559124	117.5125	116.8337	6.920175	30.69144
1952	7.20930	3.1560670	117.2840	116.6066	6.919295	30.68737
1953	7.21452	3.1561844	117.0437	116.3678	6.918598	30.68411
1954	7.21834	3.1563947	116.8093	116.1347	6.918028	30.68309
1955	7.22220	3.1564874	116.5749	115.9017	6.917509	30.68077
1956	7.22523	3.1565430	116.3403	115.6685	6.917108	30.67878
1957	7.22774	3.1567038	116.1062	115.4359	6.916721	30.67839
1958	7.23046	3.1569389	115.8807	115.2118	6.916273	30.67861
1959	7.23375	3.1569635	115.6586	114.9910	6.915856	30.67606
1960	7.23610	3.1571181	115.4395	114.7732	6.915491	30.67574
1961	7.23824	3.1571180	115.2145	114.5495	6.915226	30.67394
1962	7.23955	3.1569571	114.9951	114.3315	6.915141	30.67115
1963	7.23913	3.1568147	114.7639	114.1017	6.915256	30.67009
1964	7.23798	3.1567527	114.5294	113.8686	6.915420	30.67055
1965	7.23662	3.1567836	114.2859	113.6266	6.915566	30.67219
1966	7.23547	3.1568145	114.0516	113.3937	6.915686	30.67365
1967	7.23464	3.1568949	113.8140	113.1575	6.915744	30.67536
1968	7.23427	3.1568453	113.5858	112.9307	6.915808	30.67525
1969	7.23469	3.1568762	113.3544	112.7008	6.915738	30.67531
1970	7.23558	3.1571174	113.1324	112.4801	6.915509	30.67722
1971	7.23756	3.1576248	112.9010	112.2500	6.915019	30.68102
1972	7.24174	3.1582869	112.6788	112.0292	6.914187	30.68453
1973	7.24807	3.1585901	112.4593	111.8110	6.913268	30.68228
1974	7.25403	3.1587694	112.2310	111.5841	6.912453	30.67903
1975	7.25889	3.1588869	111.9967	111.3512	6.911801	30.67609
1976	7.26213	3.1589487	111.7685	111.1244	6.911373	30.67398
1977	7.26485	3.1591467	111.5341	110.8914	6.910942	30.67381
1978	7.26783	3.1594623	111.2998	110.6585	6.910424	30.67466
1979	7.27149	3.1595179	111.0686	110.4287	6.909948	30.67212
1980	7.27437	3.1596416	110.8372	110.1987	6.909534	30.67100
1981	7.27662	3.1596105	110.5967	109.9596	6.909271	30.66878
1982	7.27834	3.1593690	110.3531	109.7175	6.909173	30.66477
1983	7.27840	3.1589790	110.1308	109.4965	6.909350	30.66063
1984	7.27709	3.1581372	109.9025	109.2697	6.909909	30.65285
1985	7.27369	3.1574440	109.6682	109.0368	6.910651	30.64852
1986	7.26898	3.1575368	109.4338	108.8038	6.911173	30.65378
1987	7.26605	3.1574006	109.2025	108.5738	6.911590	30.65502
1988	7.26433	3.1572953	108.9803	108.3530	6.911846	30.65551
1989	7.26297	3.1576852	108.7399	108.1140	6.911819	30.66101
1990	7.26349	3.1577470	108.5175	107.8930	6.911721	30.66131
1991	7.26407	3.1575674	108.2954	107.6723	6.911733	30.65897
1992	7.26396	3.1574931	108.0701	107.4483	6.911777	30.65837
1993	7.26354	3.1574745	107.8388	107.2184	6.911832	30.65864
1994	7.26318	3.1572331	107.6105	106.9915	6.911988	30.65647
1995	7.26218	3.1569917	107.3824	106.7647	6.912221	30.65486
1996	7.26062	3.1565399	107.1539	106.5376	6.912624	30.65149
1997	7.25826	3.1564161	106.9133	106.2985	6.912965	30.65235
1998	7.25628	3.1561499	106.6728	106.0594	6.913330	30.65136
1999	7.25429	3.1558219	106.4447	105.8327	6.913725	30.64969
2000	7.25235	3.1557910	106.2102	105.5996	6.913970	30.65118
2001	7.25110	3.1557043	105.9880	105.3787	6.914160	30.65145
2002	7.25042	3.1555867	105.7658	105.1578	6.914295	30.65089
2003	7.24969	3.1555495	105.5376	104.9310	6.914397	30.65124
2004	7.24901	3.1554628	105.3154	104.7101	6.914517	30.65101
2005	7.24849	3.1555184	105.0870	104.4830	6.914549	30.65217
2006	7.24843	3.1555493	104.8649	104.2623	6.914536	30.65265
2007	7.24875	3.1555863	104.6364	104.0352	6.914476	30.65287
2008	7.24927	3.1556420	104.4053	103.8054	6.914381	30.65311
2009	7.24995	3.1556419	104.1649	103.5665	6.914294	30.65261
2010	7.25058	3.1557284	103.9304	103.3334	6.914171	30.65309
2011	7.25136	3.1556850	103.6928	103.0973	6.914092	30.65204
2012	7.25188	3.1554003	103.4646	102.8704	6.914161	30.64862
2013	7.25131	3.1552518	103.2361	102.6433	6.914298	30.64763
2014	7.25032	3.1550104	103.0110	102.4195	6.914530	30.64601
2015	7.24911	3.1547691	102.7888	102.1987	6.914788	30.64458
2016	7.24775	3.1545401	102.5634	101.9746	6.915059	30.64343
2017	7.24666	3.1544968	102.3352	101.7477	6.915209	30.64403
2018	7.24577	3.1542616	102.1103	101.5242	6.915426	30.64239
2019	7.24519	3.1541069	101.8754	101.2907	6.915566	30.64134
2020	7.24478	3.1539584	101.6472	101.0639	6.915684	30.64022
2021	7.24467	3.1539398	101.4129	100.8310	6.915701	30.64021
2022	7.24478	3.1539273	101.1694	100.5889	6.915689	30.64010
2023	7.24457	3.1538963	100.9441	100.3650	6.915725	30.64005
2024	7.24436	3.1538406	100.7096	100.1319	6.915773	30.63974
2025	7.24399	3.1538096	100.4814	99.9050	6.915827	30.63983
2026	7.24368	3.1537477	100.2501	99.6752	6.915891	30.63954
2027	7.24347	3.1537476	100.0093	99.4358	6.915911	30.63984
2028	7.24336	3.1537166	99.7965	99.2243	6.915935	30.63969
2029	7.24321	3.1536856	99.5743	99.0034	6.915964	30.63959
2030	7.24321	3.1536855	99.3400	98.7705	6.915960	30.63970
2031	7.24347	3.1536855	99.1146	98.5464	6.915924	30.63957
2032	7.24420	3.1536854	98.8773	98.3106	6.915830	30.63902
2033	7.24530	3.1536853	98.6426	98.0773	6.915692	30.63816
2034	7.24708	3.1536852	98.4144	97.8504	6.915471	30.63668
2035	7.24870	3.1536851	98.1800	97.6174	6.915269	30.63535
2036	7.25005	3.1537160	97.9580	97.3967	6.915085	30.63458
2037	7.25162	3.1537159	97.7266	97.1667	6.914889	30.63329
2038	7.25262	3.1537158	97.5044	96.9458	6.914764	30.63251
2039	7.25350	3.1537157	97.2732	96.7160	6.914652	30.63183
2040	7.25403	3.1536847	97.0446	96.4888	6.914598	30.63113
2041	7.25439	3.1536847	96.8134	96.2589	6.914549	30.63091
2042	7.25455	3.1536537	96.5911	96.0380	6.914541	30.63054
2043	7.25460	3.1536845	96.3720	95.8202	6.914515	30.63092
2044	7.25497	3.1536535	96.1314	95.5810	6.914481	30.63037
2045	7.25513	3.1536844	95.8972	95.3482	6.914442	30.63067
2046	7.25544	3.1536534	95.6718	95.1242	6.914414	30.63016
2047	7.25560	3.1536533	95.4404	94.8941	6.914391	30.63012
2048	7.25591	3.1536842	95.2091	94.6642	6.914333	30.63028
2049	7.25638	3.1537459	94.9837	94.4402	6.914242	30.63063
2050	7.25722	3.1537459	94.7466	94.2044	6.914135	30.62999
2051	7.25837	3.1537767	94.5241	93.9833	6.913976	30.62940
2052	7.26004	3.1538385	94.2929	93.7535	6.913738	30.62869
2053	7.26192	3.1538941	94.0613	93.5233	6.913478	30.62773
2054	7.26365	3.1539373	93.8302	93.2935	6.913243	30.62677
2055	7.26574	3.1539558	93.6019	93.0666	6.912975	30.62522
2056	7.26715	3.1539247	93.3673	92.8333	6.912814	30.62374
2057	7.26799	3.1538628	93.1451	92.6125	6.912737	30.62243
2058	7.26856	3.1538627	92.9199	92.3886	6.912663	30.62202
2059	7.26862	3.1538441	92.7008	92.1708	6.912661	30.62187
2060	7.26851	3.1538378	92.4725	91.9439	6.912672	30.62200
2061	7.26851	3.1537759	92.2534	91.7261	6.912698	30.62143
2062	7.26867	3.1536831	92.0249	91.4989	6.912719	30.62040
2063	7.26877	3.1535964	91.7906	91.2660	6.912743	30.61948
2064	7.26903	3.1534293	91.5532	91.0301	6.912787	30.61756
2065	7.26945	3.1533241	91.3159	90.7941	6.912782	30.61616
2066	7.27003	3.1533240	91.0904	90.5700	6.912708	30.61575
2067	7.27045	3.1533239	90.8591	90.3401	6.912652	30.61548
2068	7.27081	3.1533857	90.6338	90.1161	6.912574	30.61593
2069	7.27134	3.1535217	90.3995	89.8832	6.912440	30.61703
2070	7.27181	3.1535340	90.1771	89.6621	6.912372	30.61684
2071	7.27233	3.1533855	89.9306	89.4170	6.912375	30.61489
2072	7.27264	3.1532617	89.6841	89.1720	6.912392	30.61340
2073	7.27280	3.1532369	89.4465	88.9358	6.912380	30.61310
2074	7.27264	3.1532368	89.2273	88.7179	6.912395	30.61333
2075	7.27254	3.1531440	88.9900	88.4821	6.912447	30.61253
2076	7.27290	3.1530820	88.7615	88.2549	6.912428	30.61165
2077	7.27348	3.1530510	88.5395	88.0342	6.912369	30.61090
2078	7.27426	3.1529829	88.3142	87.8102	6.912301	30.60958
2079	7.27521	3.1529024	88.1072	87.6045	6.912222	30.60797
2080	7.27641	3.1528714	87.8819	87.3805	6.912086	30.60668
2081	7.27730	3.1528157	87.6475	87.1475	6.912000	30.60540
2082	7.27798	3.1527847	87.4192	86.9205	6.911928	30.60456
2083	7.27939	3.1527660	87.1788	86.6816	6.911760	30.60322
2084	7.28201	3.1527845	86.9413	86.4454	6.911428	30.60121
2085	7.28546	3.1527844	86.7069	86.2124	6.911004	30.59827
2086	7.28907	3.1527843	86.4784	85.9853	6.910561	30.59518
2087	7.29205	3.1527656	86.2564	85.7646	6.910203	30.59244
2088	7.29399	3.1527841	86.0279	85.5375	6.909954	30.59103
2089	7.29655	3.1527840	85.8087	85.3196	6.909638	30.58886
2090	7.30016	3.1528148	85.5957	85.1078	6.909181	30.58610
2091	7.30383	3.1528395	85.3766	84.8900	6.908719	30.58322
2092	7.30817	3.1528579	85.1480	84.6628	6.908178	30.57969
2093	7.31278	3.1529011	84.9138	84.4300	6.907593	30.57619
2094	7.31702	3.1528700	84.6793	84.1968	6.907088	30.57222
2095	7.32016	3.1528390	84.4389	83.9579	6.906717	30.56922
2096	7.32278	3.1528389	84.2106	83.7309	6.906394	30.56701
2097	7.32440	3.1528265	83.9732	83.4949	6.906199	30.56555
2098	7.32624	3.1528387	83.7447	83.2678	6.905966	30.56417
2099	7.32802	3.1528387	83.5257	83.0501	6.905745	30.56269
2100	7.32912	3.1527829	83.3003	82.8259	6.905634	30.56122
2101	7.32995	3.1527952	83.0782	82.6052	6.905522	30.56071
2102	7.33058	3.1528137	82.8497	82.3781	6.905432	30.56046
2103	7.33132	3.1527827	82.6399	82.1694	6.905354	30.55957
2104	7.33200	3.1528135	82.4113	81.9422	6.905252	30.55941
2105	7.33268	3.1528135	82.1893	81.7215	6.905165	30.55890
2106	7.33320	3.1527948	81.9486	81.4823	6.905105	30.55835
2107	7.33373	3.1528133	81.7144	81.2494	6.905028	30.55819
2108	7.33388	3.1527823	81.4798	81.0162	6.905019	30.55782
2109	7.33425	3.1527822	81.2515	80.7892	6.904970	30.55760
2110	7.33446	3.1527512	81.0142	80.5534	6.904955	30.55719
2111	7.33488	3.1527635	80.7920	80.3325	6.904894	30.55705
2112	7.33551	3.1527511	80.5726	80.1143	6.904819	30.55646
2113	7.33614	3.1527510	80.3476	79.8906	6.904738	30.55600
2114	7.33666	3.1527819	80.1284	79.6727	6.904656	30.55597
2115	7.33708	3.1527200	79.9061	79.4517	6.904630	30.55503
2116	7.33739	3.1527261	79.6566	79.2037	6.904584	30.55493
2117	7.33755	3.1527507	79.4038	78.9524	6.904548	30.55517
2118	7.33807	3.1526888	79.1725	78.7224	6.904510	30.55415
2119	7.33818	3.1527197	78.9412	78.4925	6.904478	30.55449
2120	7.33823	3.1527629	78.7129	78.2655	6.904446	30.55501
2121	7.33870	3.1527504	78.4815	78.0355	6.904390	30.55456
2122	7.33912	3.1527194	78.2593	77.8146	6.904350	30.55396
2123	7.33933	3.1527194	78.0370	77.5936	6.904320	30.55387
2124	7.33980	3.1527502	77.8148	77.3728	6.904243	30.55388
2125	7.34080	3.1527625	77.5864	77.1457	6.904112	30.55324
2126	7.34195	3.1527501	77.3612	76.9217	6.903974	30.55219
2127	7.34279	3.1527500	77.1239	76.6859	6.903867	30.55155
2128	7.34378	3.1527499	76.8954	76.4587	6.903742	30.55078
2129	7.34441	3.1527498	76.6579	76.2226	6.903661	30.55033
2130	7.34483	3.1527250	76.4266	75.9926	6.903618	30.54979
2131	7.34515	3.1527497	76.2043	75.7717	6.903563	30.54988
2132	7.34551	3.1527496	75.9851	75.5538	6.903514	30.54965
2133	7.34614	3.1527805	75.7601	75.3300	6.903419	30.54953
2134	7.34709	3.1527618	75.5346	75.1059	6.903309	30.54860
2135	7.34771	3.1527803	75.3063	74.8789	6.903219	30.54834
2136	7.34798	3.1527493	75.0808	74.6548	6.903198	30.54788
2137	7.34829	3.1527492	74.8557	74.4310	6.903155	30.54770
2138	7.34861	3.1527801	74.6274	74.2040	6.903098	30.54786
2139	7.34892	3.1527244	74.3930	73.9710	6.903082	30.54709
2140	7.34929	3.1527181	74.1615	73.7409	6.903035	30.54680
2141	7.34944	3.1526871	73.9396	73.5202	6.903027	30.54643
2142	7.34986	3.1527180	73.7079	73.2898	6.902957	30.54649
2143	7.34981	3.1526870	73.4827	73.0660	6.902973	30.54630
2144	7.34986	3.1526931	73.2545	72.8392	6.902959	30.54643
2145	7.35007	3.1526250	73.0322	72.6181	6.902962	30.54561
2146	7.35018	3.1526249	72.8039	72.3912	6.902945	30.54562
2147	7.35018	3.1526558	72.5725	72.1611	6.902926	30.54605
2148	7.35028	3.1526310	72.3472	71.9371	6.902920	30.54579
2149	7.35060	3.1526247	72.1189	71.7102	6.902881	30.54555
2150	7.35086	3.1526246	71.8875	71.4801	6.902844	30.54542
2151	7.35149	3.1525998	71.6684	71.2623	6.902776	30.54470
2152	7.35201	3.1526554	71.4401	71.0353	6.902681	30.54493
2153	7.35295	3.1526306	71.2208	70.8173	6.902574	30.54393
2154	7.35411	3.1526552	70.9863	70.5842	6.902418	30.54328
2155	7.35526	3.1526552	70.7672	70.3663	6.902273	30.54237
2156	7.35626	3.1526860	70.5330	70.1336	6.902133	30.54192
2157	7.35715	3.1526859	70.3105	69.9124	6.902021	30.54124
2158	7.35799	3.1526920	70.0762	69.6794	6.901911	30.54067
2159	7.35888	3.1526858	69.8479	69.4524	6.901802	30.53991
2160	7.35930	3.1525991	69.6197	69.2255	6.901788	30.53872
2161	7.36013	3.1526856	69.3821	68.9894	6.901640	30.53901
2162	7.36066	3.1526917	69.1265	68.7352	6.901568	30.53873
2163	7.36145	3.1526855	68.9042	68.5142	6.901472	30.53807
2164	7.36244	3.1527163	68.6819	68.2932	6.901332	30.53762
2165	7.36359	3.1527472	68.4537	68.0663	6.901172	30.53703
2166	7.36527	3.1527161	68.2316	67.8456	6.900979	30.53532
2167	7.36622	3.1527223	68.0059	67.6212	6.900858	30.53466
2168	7.36716	3.1527469	67.7839	67.4005	6.900727	30.53419
2169	7.36795	3.1527468	67.5556	67.1735	6.900627	30.53360
2170	7.36868	3.1527158	67.3303	66.9494	6.900548	30.53272
2171	7.36952	3.1526539	67.0988	66.7193	6.900472	30.53142
2172	7.37083	3.1526600	66.8613	66.4833	6.900305	30.53044
2173	7.37219	3.1526228	66.6331	66.2564	6.900153	30.52894
2174	7.37376	3.1525671	66.4046	66.0292	6.899985	30.52706
2175	7.37523	3.1525051	66.1825	65.8083	6.899832	30.52520
2176	7.37702	3.1523875	65.9664	65.5935	6.899668	30.52246
2177	7.37938	3.1521834	65.7442	65.3726	6.899475	30.51830
2178	7.38263	3.1520843	65.5189	65.1486	6.899123	30.51448
2179	7.38541	3.1520224	65.2997	64.9307	6.898812	30.51146
2180	7.38756	3.1519666	65.0714	64.7037	6.898573	30.50908
2181	7.38945	3.1518366	64.8461	64.4797	6.898402	30.50612
2182	7.39149	3.1517252	64.6207	64.2557	6.898203	30.50323
2183	7.39354	3.1516633	64.3894	64.0256	6.897980	30.50087
2184	7.39511	3.1515148	64.1581	63.7957	6.897855	30.49800
2185	7.39684	3.1513354	63.9176	63.5566	6.897726	30.49466
2186	7.39873	3.1512673	63.7014	63.3417	6.897526	30.49237
2187	7.39978	3.1511249	63.4732	63.1148	6.897462	30.49002
2188	7.40088	3.1509765	63.2479	62.8908	6.897395	30.48756
2189	7.40188	3.1509145	63.0195	62.6637	6.897299	30.48613
2190	7.40246	3.1508217	62.7970	62.4425	6.897269	30.48472
2191	7.40282	3.1507041	62.5750	62.2218	6.897276	30.48324
2192	7.40314	3.1506175	62.3467	61.9948	6.897275	30.48214
2193	7.40335	3.1505865	62.1243	61.7737	6.897260	30.48172
2194	7.40350	3.1504937	61.8993	61.5500	6.897281	30.48069
2195	7.40377	3.1504751	61.6738	61.3259	6.897254	30.48036
2196	7.40377	3.1504317	61.4424	61.0957	6.897270	30.47999
2197	7.40377	3.1503760	61.2110	60.8657	6.897292	30.47950
2198	7.40403	3.1503450	60.9828	60.6388	6.897270	30.47904
2199	7.40398	3.1503140	60.7452	60.4026	6.897287	30.47886
2200	7.40413	3.1502830	60.5201	60.1788	6.897278	30.47849
2201	7.40398	3.1502830	60.2887	59.9487	6.897293	30.47873
2202	7.40403	3.1502829	60.0694	59.7307	6.897282	30.47878
2203	7.40408	3.1502828	59.8411	59.5038	6.897271	30.47883
2204	7.40398	3.1502519	59.6250	59.2889	6.897294	30.47869
2205	7.40413	3.1502209	59.4118	59.0769	6.897286	30.47831
2206	7.40419	3.1501652	59.1805	58.8470	6.897302	30.47777
2207	7.40440	3.1501960	58.9461	58.6139	6.897257	30.47802
2208	7.40466	3.1501650	58.7179	58.3870	6.897235	30.47756
2209	7.40476	3.1501588	58.4803	58.1508	6.897221	30.47751
2210	7.40513	3.1501649	58.2398	57.9117	6.897169	30.47736
2211	7.40602	3.1501648	58.0054	57.6786	6.897056	30.47668
2212	7.40713	3.1502204	57.7771	57.4516	6.896891	30.47640
2213	7.40839	3.1501894	57.5641	57.2398	6.896749	30.47506
2214	7.40959	3.1502820	57.3387	57.0158	6.896554	30.47509
2215	7.41127	3.1503129	57.1163	56.7947	6.896331	30.47404
2216	7.41337	3.1503437	56.8973	56.5769	6.896058	30.47263
2217	7.41521	3.1504302	56.6721	56.3530	6.895790	30.47204
2218	7.41731	3.1504424	56.4406	56.1229	6.895525	30.47043
2219	7.41899	3.1504609	56.2124	55.8959	6.895308	30.46925
2220	7.42035	3.1505227	55.9871	55.6720	6.895108	30.46881
2221	7.42161	3.1505535	55.7526	55.4388	6.894936	30.46814
2222	7.42277	3.1505658	55.5243	55.2118	6.894786	30.46736
2223	7.42371	3.1505843	55.2958	54.9847	6.894658	30.46683
2224	7.42460	3.1506151	55.0706	54.7608	6.894531	30.46647
2225	7.42523	3.1505841	54.8483	54.5398	6.894465	30.46569
2226	7.42576	3.1506397	54.6230	54.3158	6.894370	30.46592
2227	7.42618	3.1506643	54.4009	54.0949	6.894303	30.46591
2228	7.42707	3.1506704	54.1726	53.8679	6.894188	30.46529
2229	7.42849	3.1507322	53.9473	53.6439	6.893982	30.46481
2230	7.42964	3.1507321	53.7281	53.4260	6.893838	30.46389
2231	7.43033	3.1507011	53.4965	53.1958	6.893766	30.46306
2232	7.43075	3.1507258	53.2654	52.9660	6.893698	30.46306
2233	7.43117	3.1507628	53.0369	52.7388	6.893625	30.46319
2234	7.43206	3.1507318	52.8179	52.5210	6.893528	30.46217
2235	7.43237	3.1507008	52.5956	52.3000	6.893500	30.46166
2236	7.43248	3.1506946	52.3703	52.0760	6.893486	30.46160
2237	7.43237	3.1507007	52.1481	51.8551	6.893491	30.46186
2238	7.43243	3.1507625	51.9228	51.6310	6.893451	30.46257
2239	7.43290	3.1508490	51.6972	51.4068	6.893348	30.46318
2240	7.43426	3.1509107	51.4692	51.1800	6.893148	30.46275
2241	7.43600	3.1509787	51.2408	50.9530	6.892902	30.46205
2242	7.43784	3.1510033	51.0094	50.7229	6.892663	30.46080
2243	7.43973	3.1510032	50.7781	50.4929	6.892429	30.45925
2244	7.44120	3.1510031	50.5466	50.2628	6.892247	30.45806
2245	7.44230	3.1510092	50.3185	50.0359	6.892106	30.45725
2246	7.44330	3.1508793	50.0930	49.8118	6.892042	30.45509
2247	7.44440	3.1507926	49.8646	49.5847	6.891946	30.45330
2248	7.44556	3.1506998	49.6457	49.3670	6.891846	30.45139
2249	7.44713	3.1507306	49.4232	49.1458	6.891636	30.45043
2250	7.44855	3.1506935	49.2011	48.9250	6.891477	30.44889
2251	7.44965	3.1506996	48.9727	48.6979	6.891336	30.44809
2252	7.45044	3.1506129	48.7473	48.4738	6.891278	30.44657
2253	7.45128	3.1505819	48.5159	48.2437	6.891186	30.44560
2254	7.45165	3.1505509	48.2877	48.0168	6.891152	30.44505
2255	7.45207	3.1505014	48.0655	47.7958	6.891120	30.44425
2256	7.45265	3.1504271	47.8401	47.5718	6.891081	30.44305
2257	7.45338	3.1503714	47.6148	47.3478	6.891014	30.44191
2258	7.45412	3.1503095	47.3835	47.1178	6.890950	30.44070
2259	7.45475	3.1501857	47.1551	46.8907	6.890928	30.43893
2260	7.45538	3.1500682	46.9329	46.6698	6.890904	30.43721
2261	7.45601	3.1498888	46.6984	46.4366	6.890908	30.43485
2262	7.45675	3.1496476	46.4702	46.2097	6.890930	30.43172
2263	7.45753	3.1492580	46.2509	45.9917	6.891016	30.42697
2264	7.45843	3.1488870	46.0258	45.7678	6.891080	30.42232
2265	7.45948	3.1487200	45.8005	45.5438	6.891028	30.41971
2266	7.46048	3.1486334	45.5781	45.3227	6.890944	30.41801
2267	7.46100	3.1485097	45.3407	45.0867	6.890934	30.41633
2268	7.46158	3.1483180	45.1124	44.8597	6.890951	30.41387
2269	7.46210	3.1480582	44.8778	44.6264	6.891007	30.41074
2270	7.46274	3.1478789	44.6434	44.3933	6.891011	30.40838
2271	7.46337	3.1476996	44.4122	44.1634	6.891016	30.40601
2272	7.46410	3.1473719	44.1806	43.9332	6.891078	30.40197
2273	7.46489	3.1471493	43.9554	43.7093	6.891084	30.39900
2274	7.46563	3.1468958	43.7332	43.4883	6.891112	30.39574
2275	7.46641	3.1465311	43.5109	43.2673	6.891186	30.39125
2276	7.46694	3.1460860	43.2857	43.0434	6.891329	30.38614
2277	7.46773	3.1458511	43.0633	42.8223	6.891341	30.38303
2278	7.46825	3.1456965	42.8289	42.5892	6.891347	30.38103
2279	7.46852	3.1456038	42.6036	42.3652	6.891355	30.37990
2280	7.46867	3.1455481	42.3754	42.1383	6.891358	30.37927
2281	7.46883	3.1455047	42.1470	41.9111	6.891355	30.37877
2282	7.46899	3.1454861	41.9187	41.6842	6.891340	30.37853
2283	7.46899	3.1455170	41.6845	41.4513	6.891321	30.37897
2284	7.46909	3.1455478	41.4528	41.2210	6.891289	30.37931
2285	7.46920	3.1455724	41.2304	40.9998	6.891260	30.37958
2286	7.46920	3.1455662	40.9963	40.7671	6.891258	30.37961
2287	7.46930	3.1454549	40.7708	40.5428	6.891294	30.37843
2288	7.46941	3.1453374	40.5365	40.3098	6.891333	30.37719
2289	7.46946	3.1452446	40.3082	40.0829	6.891366	30.37625
2290	7.46957	3.1451890	40.0828	39.8588	6.891375	30.37566
2291	7.46957	3.1450344	39.8484	39.6257	6.891444	30.37411
2292	7.46967	3.1448860	39.6229	39.4014	6.891498	30.37254
2293	7.46978	3.1448242	39.3918	39.1717	6.891510	30.37189
2294	7.46983	3.1448056	39.1604	38.9415	6.891508	30.37174
2295	7.46988	3.1447375	38.9320	38.7145	6.891530	30.37107
2296	7.46999	3.1446448	38.6823	38.4662	6.891556	30.37010
2297	7.47020	3.1445891	38.4570	38.2422	6.891553	30.36942
2298	7.47030	3.1444963	38.2227	38.0092	6.891580	30.36844
2299	7.47036	3.1444283	37.9913	37.7791	6.891601	30.36777
2300	7.47062	3.1444097	37.7632	37.5523	6.891574	30.36744
2301	7.47072	3.1443478	37.5256	37.3161	6.891586	30.36679
2302	7.47099	3.1443168	37.2912	37.0830	6.891564	30.36633
2303	7.47099	3.1443044	37.0537	36.8468	6.891565	30.36631
2304	7.47088	3.1441993	36.8283	36.6227	6.891624	30.36537
2305	7.47088	3.1442240	36.6000	36.3957	6.891607	30.36574
2306	7.47093	3.1441374	36.3685	36.1656	6.891638	30.36487
2307	7.47083	3.1441126	36.1372	35.9356	6.891658	30.36480
2308	7.47088	3.1440199	35.9059	35.7055	6.891691	30.36386
2309	7.47088	3.1439580	35.6714	35.4724	6.891716	30.36331
2310	7.47109	3.1439270	35.4400	35.2423	6.891701	30.36289
2311	7.47114	3.1437972	35.1994	35.0030	6.891751	30.36157
2312	7.47109	3.1437168	34.9682	34.7731	6.891791	30.36086
2313	7.47135	3.1435994	34.7308	34.5371	6.891811	30.35948
2314	7.47114	3.1434510	34.5053	34.3129	6.891903	30.35817
2315	7.47104	3.1433274	34.2679	34.0769	6.891970	30.35705
2316	7.47088	3.1431976	34.0395	33.8497	6.892046	30.35590
2317	7.47072	3.1430925	33.8141	33.6256	6.892111	30.35502
2318	7.47062	3.1428824	33.5918	33.4046	6.892219	30.35296
2319	7.47051	3.1425796	33.3636	33.1776	6.892372	30.34992
2320	7.47072	3.1420915	33.1294	32.9448	6.892574	30.34462
2321	7.47093	3.1417455	32.8856	32.7023	6.892709	30.34085
2322	7.47141	3.1413255	32.6483	32.4664	6.892847	30.33605
2323	7.47198	3.1410289	32.4078	32.2272	6.892913	30.33249
2324	7.47246	3.1405780	32.1702	31.9909	6.893066	30.32736
2325	7.47309	3.1402814	31.9297	31.7519	6.893126	30.32375
2326	7.47382	3.1399479	31.6983	31.5217	6.893191	30.31965
2327	7.47430	3.1399231	31.4730	31.2977	6.893141	30.31907
2328	7.47461	3.1396945	31.2477	31.0737	6.893207	30.31645
2329	7.47488	3.1396513	31.0192	30.8465	6.893192	30.31586
2330	7.47514	3.1394721	30.7973	30.6259	6.893241	30.31381
2331	7.47540	3.1393547	30.5567	30.3865	6.893260	30.31243
2332	7.47577	3.1391879	30.3250	30.1562	6.893290	30.31043
2333	7.47603	3.1390520	30.0847	29.9172	6.893319	30.30886
2334	7.47666	3.1389654	29.8411	29.6751	6.893278	30.30749
2335	7.47703	3.1389345	29.6097	29.4449	6.893244	30.30694
2336	7.47719	3.1388418	29.3632	29.1998	6.893264	30.30592
2337	7.47761	3.1387862	29.1377	28.9756	6.893235	30.30506
2338	7.47787	3.1386688	28.9004	28.7396	6.893255	30.30368
2339	7.47845	3.1385761	28.6751	28.5156	6.893224	30.30229
2340	7.47898	3.1384031	28.4528	28.2946	6.893238	30.30008
2341	7.47982	3.1382178	28.2215	28.0645	6.893220	30.29747
2342	7.48071	3.1381251	27.9749	27.8193	6.893151	30.29581
2343	7.48139	3.1381003	27.7374	27.5832	6.893075	30.29505
2344	7.48208	3.1379891	27.4968	27.3439	6.893041	30.29337
2345	7.48234	3.1379767	27.2562	27.1047	6.893010	30.29311
2346	7.48281	3.1380075	27.0157	26.8655	6.892933	30.29314
2347	7.48302	3.1376493	26.7752	26.6264	6.893073	30.28923
2348	7.48376	3.1368529	26.5440	26.3964	6.893359	30.28019
2349	7.48570	3.1355936	26.3187	26.1724	6.893718	30.26515
2350	7.48907	3.1341925	26.0873	25.9423	6.893972	30.24736
2351	7.49349	3.1330878	25.8527	25.7091	6.893957	30.23182
2352	7.49796	3.1321066	25.6244	25.4820	6.893877	30.21756
2353	7.50164	3.1314217	25.3928	25.2518	6.893751	30.20715
2354	7.50485	3.1308541	25.1557	25.0159	6.893627	30.19841
2355	7.50727	3.1302556	24.9150	24.7766	6.893613	30.19003
2356	7.50921	3.1294660	24.6775	24.5405	6.893748	30.18002
2357	7.51105	3.1293056	24.4401	24.3044	6.893596	30.17681
2358	7.51232	3.1290650	24.2059	24.0715	6.893553	30.17325
2359	7.51321	3.1288614	23.9681	23.8350	6.893536	30.17041
2360	7.51395	3.1285838	23.7460	23.6142	6.893574	30.16690
2361	7.51458	3.1283555	23.5176	23.3870	6.893602	30.16402
2362	7.51505	3.1281150	23.2894	23.1601	6.893654	30.16114
2363	7.51563	3.1278621	23.0580	22.9300	6.893700	30.15805
2364	7.51626	3.1276955	22.8294	22.7027	6.893698	30.15582
2365	7.51679	3.1275474	22.5952	22.4699	6.893699	30.15389
2366	7.51711	3.1273439	22.3545	22.2305	6.893753	30.15155
2367	7.51742	3.1269800	22.1048	21.9822	6.893883	30.14751
2368	7.51768	3.1267456	21.8734	21.7520	6.893958	30.14488
2369	7.51795	3.1264188	21.6329	21.5130	6.894077	30.14127
2370	7.51826	3.1261967	21.4016	21.2829	6.894139	30.13873
2371	7.51847	3.1260610	21.1703	21.0529	6.894174	30.13720
2372	7.51884	3.1260055	20.9448	20.8287	6.894151	30.13639
2373	7.51910	3.1258575	20.7195	20.6046	6.894185	30.13468
2374	7.51916	3.1257896	20.4822	20.3686	6.894206	30.13402
2375	7.51942	3.1256785	20.2446	20.1324	6.894222	30.13271
2376	7.51963	3.1255860	20.0041	19.8932	6.894236	30.13164
2377	7.51995	3.1254688	19.7666	19.6571	6.894249	30.13023
2378	7.52005	3.1253208	19.5200	19.4119	6.894302	30.12866
2379	7.52026	3.1251419	19.2854	19.1786	6.894356	30.12668
2380	7.52063	3.1251418	19.0573	18.9518	6.894307	30.12646
2381	7.52079	3.1251294	18.8290	18.7247	6.894290	30.12629
2382	7.52095	3.1248705	18.6067	18.5036	6.894389	30.12349
2383	7.52147	3.1235082	18.3781	18.2763	6.894968	30.10861
2384	7.52268	3.1226453	18.1471	18.0466	6.895227	30.09846
2385	7.52453	3.1220290	17.9186	17.8194	6.895291	30.09040
2386	7.52610	3.1216099	17.6781	17.5802	6.895294	30.08467
2387	7.52747	3.1209259	17.4406	17.3441	6.895448	30.07630
2388	7.52916	3.1201803	17.1909	17.0957	6.895593	30.06700
2389	7.53105	3.1192623	16.9412	16.8474	6.895794	30.05569
2390	7.53326	3.1185231	16.7068	16.6143	6.895871	30.04600
2391	7.53510	3.1178639	16.4847	16.3935	6.895956	30.03749
2392	7.53632	3.1171864	16.2623	16.1723	6.896126	30.02932
2393	7.53726	3.1168045	16.0402	15.9515	6.896188	30.02453
2394	7.53795	3.1165396	15.8148	15.7273	6.896226	30.02121
2395	7.53847	3.1163302	15.5834	15.4972	6.896257	30.01863
2396	7.53868	3.1161823	15.3518	15.2669	6.896297	30.01697
2397	7.53905	3.1160653	15.1175	15.0339	6.896303	30.01551
2398	7.53921	3.1159544	14.8954	14.8130	6.896333	30.01429
2399	7.53926	3.1157634	14.6731	14.5920	6.896413	30.01231
2400	7.53963	3.1155602	14.4540	14.3741	6.896460	30.00992
2401	7.53990	3.1154246	14.2316	14.1529	6.896488	30.00834
2402	7.54011	3.1152953	14.0091	13.9317	6.896520	30.00688
2403	7.54047	3.1147903	13.7932	13.7170	6.896710	30.00128
2404	7.54100	3.1137806	13.5801	13.5050	6.897122	29.99016
2405	7.54190	3.1125495	13.3609	13.2871	6.897593	29.97638
2406	7.54337	3.1118293	13.1204	13.0479	6.897751	29.96754
2407	7.54427	3.1113553	12.8981	12.8268	6.897863	29.96182
2408	7.54516	3.1106476	12.6726	12.6026	6.898086	29.95361
2409	7.54574	3.1099399	12.4565	12.3877	6.898347	29.94567
2410	7.54621	3.1094045	12.2283	12.1607	6.898539	29.93966
2411	7.54658	3.1090230	12.0088	11.9425	6.898671	29.93538
2412	7.54679	3.1087891	11.8048	11.7397	6.898752	29.93279
2413	7.54690	3.1086414	11.5797	11.5158	6.898805	29.93123
2414	7.54690	3.1085245	11.3637	11.3010	6.898857	29.93008
2415	7.54700	3.1084629	11.1503	11.0888	6.898869	29.92942
2416	7.54690	3.1083459	10.9343	10.8740	6.898933	29.92836
2417	7.54700	3.1081798	10.7150	10.6558	6.898995	29.92660
2418	7.54700	3.1079890	10.4929	10.4350	6.899081	29.92466
2419	7.54679	3.1079274	10.2735	10.2168	6.899132	29.92429
2420	7.54674	3.1078412	10.0484	9.9929	6.899175	29.92351
2421	7.54674	3.1077550	9.8291	9.7749	6.899212	29.92269
2422	7.54669	3.1076320	9.6190	9.5659	6.899272	29.92152
2423	7.54653	3.1074966	9.3935	9.3417	6.899352	29.92031
2424	7.54653	3.1073120	9.1866	9.1359	6.899435	29.91843
2425	7.54648	3.1066907	8.9736	8.9241	6.899733	29.91196
2426	7.54653	3.1062170	8.7635	8.7152	6.899947	29.90696
2427	7.54663	3.1047103	8.5472	8.5001	6.900646	29.89093
2428	7.54716	3.1014396	8.3341	8.2882	6.902131	29.85575
2429	7.54842	3.0977585	8.1119	8.0671	6.903720	29.81559
2430	7.55069	3.0933790	7.8957	7.8522	6.905520	29.76715
2431	7.55380	3.0864859	7.6825	7.6401	6.908410	29.69127
2432	7.55796	3.0820573	7.4634	7.4223	6.909999	29.64073
2433	7.56180	3.0780049	7.2565	7.2165	6.911448	29.59447
2434	7.56533	3.0732746	7.0431	7.0042	6.913258	29.54130
2435	7.56860	3.0715228	6.8302	6.7925	6.913684	29.52001
2436	7.57102	3.0687000	6.6078	6.5713	6.914723	29.48807
2437	7.57287	3.0663249	6.3915	6.3563	6.915619	29.46138
2438	7.57439	3.0649479	6.1725	6.1385	6.916081	29.44556
2439	7.57529	3.0639933	5.9654	5.9326	6.916420	29.43476
2440	7.57582	3.0632651	5.7429	5.7113	6.916697	29.42668
2441	7.57597	3.0626839	5.5361	5.5056	6.916949	29.42046
2442	7.57597	3.0622495	5.3228	5.2935	6.917151	29.41594
2443	7.57566	3.0620721	5.1160	5.0878	6.917270	29.41442
2444	7.57555	3.0551444	4.8937	4.8667	6.920568	29.34107
2445	7.57255	3.0337327	4.6652	4.6395	6.931102	29.11659
2446	7.56470	3.0223543	4.4429	4.4184	6.937477	29.00263
2447	7.55606	3.0188064	4.2055	4.1824	6.940231	28.97233
2448	7.55006	3.0276151	3.9862	3.9643	6.936781	29.07083
2449	7.54848	3.0140620	3.7610	3.7403	6.943421	28.92855
2450	7.54284	2.9594203	3.5508	3.5313	6.970141	28.35481
2451	7.52337	2.9212496	3.3531	3.3346	6.990802	27.96732
2452	7.49738	2.8916055	3.1431	3.1258	7.008270	27.67527
2453	7.47304	2.8769213	2.9298	2.9137	7.018408	27.53974
2454	7.45449	2.8694972	2.7045	2.6896	7.024341	27.47616
2455	7.44340	2.8654208	2.4730	2.4594	7.027716	27.44199
2456	7.43757	2.8646511	2.2538	2.2414	7.028830	27.43857
2457	7.43516	2.8640485	2.0346	2.0234	7.029426	27.43420
2458	7.43416	2.8645376	1.8186	1.8086	7.029315	27.44024
2459	7.43442	2.8655638	1.5902	1.5814	7.028784	27.45096
2460	7.43421	2.8666737	1.3556	1.3481	7.028274	27.46294
2461	7.43290	2.8667035	1.1059	1.0999	7.028424	27.46440
2462	7.43132	2.8661604	0.8839	0.8790	7.028883	27.46000
2463	7.42996	2.8653906	0.6859	0.6821	7.029424	27.45303
2464	7.42891	2.8649072	0.5185	0.5156	7.029788	27.44882
2465	7.42817	2.8644836	0.3538	0.3519	7.030083	27.44500
2466	7.42807	2.8639108	0.1530	0.1521	7.030368	27.43911
2467	7.42786	2.8038627	0.0071	0.0071	7.059262	26.80609
2468	7.42786	0.8530743	0.0129	0.0129	8.005982	7.35918
2469	7.42796	0.3931135	0.0189	0.0188	8.223660	3.21341
2470	7.42880	0.3416020	0.0190	0.0189	8.247242	2.76774
2471	7.42938	0.7930051	0.0221	0.0219	8.034529	6.80344
2472	7.42996	1.8938583	0.0190	0.0189	7.499918	17.44153
2473	7.43180	2.7763236	0.0161	0.0160	7.071999	26.51327
2474	7.43442	2.7369712	0.0189	0.0188	7.090597	26.09790
2475	7.43594	0.5481074	0.0159	0.0158	8.149709	4.57908
2476	7.43731	0.5233089	0.0160	0.0159	8.161108	4.35792
2477	7.43841	0.4608115	0.0221	0.0219	8.190152	3.80475
2478	7.43952	0.4997899	0.0189	0.0188	8.171714	4.14887
2479	7.44036	0.4614622	0.0160	0.0160	8.189469	3.81026
2480	7.44141	0.4223404	0.0189	0.0188	8.207471	3.46695
2481	7.44235	0.3888786	0.0097	0.0097	8.222785	3.17529
2482	7.44288	0.3634677	0.0160	0.0159	8.234402	2.95511
2483	7.44319	0.3419923	0.0128	0.0127	8.244210	2.76995
2484	7.44372	0.3144803	0.0157	0.0156	8.256699	2.53402
2485	7.44430	0.3050322	0.0191	0.0190	8.260894	2.45332
2486	7.44498	0.3055819	0.0097	0.0096	8.260507	2.45796
2487	7.44587	0.3019146	0.0128	0.0127	8.262001	2.42664
2488	7.44687	0.2839615	0.0157	0.0157	8.269965	2.27394
2489	7.44766	0.2711639	0.0097	0.0097	8.275609	2.16551
2490	7.44839	0.2673087	0.0126	0.0126	8.277206	2.13289
2491	7.44929	0.2621117	0.0067	0.0066	8.279376	2.08898
2492	7.44986	0.2461816	0.0188	0.0187	8.286445	1.95490
2493	7.45060	0.2312370	0.0158	0.0157	8.293012	1.82966
2494	7.45154	0.2293482	0.0128	0.0127	8.293669	1.81383
2495	7.45207	0.2244881	0.0036	0.0035	8.295741	1.77323
2496	7.45302	0.2157698	0.0188	0.0187	8.299449	1.70055
2497	7.45344	0.2085995	0.0157	0.0157	8.302565	1.64095
2498	7.45370	0.2135071	0.0128	0.0128	8.300322	1.68170
2499	7.45396	0.2495669	0.0128	0.0127	8.284098	1.98310
2500	7.45412	0.2625424	0.0127	0.0126	8.278214	2.09232
2501	7.45443	0.2665045	0.0186	0.0185	8.276360	2.12573
2502	7.45470	0.2511411	0.0158	0.0157	8.283241	1.99629
2503	7.45491	0.2393900	0.0156	0.0155	8.288486	1.89766
2504	7.45533	0.2310157	0.0096	0.0095	8.292160	1.82756
2505	7.45538	0.2163316	0.0096	0.0095	8.298722	1.70511
2506	7.45548	0.2054869	0.0097	0.0096	8.303538	1.61504
2507	7.45538	0.2060127	0.0128	0.0127	8.303325	1.61940
2508	7.45527	0.2071287	0.0096	0.0095	8.302849	1.62866
2509	7.45496	0.2031087	0.0216	0.0215	8.304703	1.59535
2510	7.45464	0.1977779	0.0157	0.0157	8.307138	1.55124
2511	7.45459	0.1929143	0.0157	0.0157	8.309309	1.51105
2512	7.45443	0.1851604	0.0097	0.0096	8.312779	1.44713
2513	7.45438	0.1801613	0.0126	0.0126	8.315002	1.40601
2514	7.45417	0.1727466	0.0186	0.0185	8.318319	1.34516
2515	7.45407	0.1661866	0.0126	0.0126	8.321231	1.29146
2516	7.45407	0.1615472	0.0156	0.0155	8.323272	1.25356
2517	7.45386	0.1568572	0.0094	0.0094	8.325374	1.21533
2518	7.45370	0.1514607	0.0156	0.0155	8.327772	1.17142
2519	7.45344	0.1469252	0.0097	0.0096	8.329810	1.13460
2520	7.45328	0.1396441	0.0157	0.0156	8.333022	1.07562
2521	7.45312	0.1326534	0.0126	0.0126	8.336098	1.01918
2522	7.45317	0.1293682	0.0186	0.0185	8.337514	0.99271
2523	7.45312	0.1332553	0.0156	0.0155	8.335836	1.02403
2524	7.45375	0.1366703	0.0095	0.0094	8.334221	1.05157
2525	7.45638	0.1431208	0.0124	0.0123	8.330874	1.10366
2526	7.45958	0.1508904	0.0096	0.0095	8.326826	1.16659
2527	7.46168	0.1614512	0.0155	0.0154	8.321768	1.25250
2528	7.46289	0.1666478	0.0125	0.0124	8.319238	1.29490
2529	7.46379	0.1694063	0.0094	0.0094	8.317842	1.31743
2530	7.46415	0.1837100	0.0065	0.0064	8.311454	1.43479
2531	7.46473	0.1750692	0.0123	0.0123	8.315154	1.36379
2532	7.46489	0.1668236	0.0154	0.0153	8.318755	1.29627
2533	7.46515	0.1637300	0.0154	0.0154	8.320063	1.27098
2534	7.46589	0.1629481	0.0094	0.0094	8.320257	1.26457
2535	7.46662	0.1631435	0.0124	0.0123	8.320022	1.26614
2536	7.46704	0.1639421	0.0123	0.0123	8.319586	1.27264
2537	7.46746	0.1639553	0.0093	0.0092	8.319494	1.27273
2538	7.46773	0.1626036	0.0154	0.0154	8.320035	1.26169
2539	7.46857	0.1605211	0.0125	0.0124	8.320779	1.24467
2540	7.46962	0.1594855	0.0154	0.0154	8.321020	1.23619
2541	7.47025	0.1603259	0.0184	0.0183	8.320523	1.24302
2542	7.47088	0.1626566	0.0122	0.0122	8.319372	1.26201
2543	7.47146	0.1670824	0.0155	0.0154	8.317310	1.29814
2544	7.47193	0.1718221	0.0154	0.0153	8.315127	1.33690
2545	7.47262	0.1759116	0.0154	0.0153	8.313186	1.37039
2546	7.47330	0.1786439	0.0155	0.0154	8.311842	1.39279
