Scan Count	Temperature [ITS-90, deg C]	Conductivity [S/m]	Pressure, Strain Gauge [db]	Depth [salt water, m]	Oxygen Saturation, Weiss [ml/l]	Salinity, Practical [PSU]
1	13.06048	0.0056858	-0.0191	-0.0190	7.353245	0.03704
2	13.05792	0.0056734	-0.0253	-0.0251	7.353669	0.03697
3	13.05513	0.0057816	-0.0222	-0.0221	7.354101	0.03760
4	13.05215	0.0060443	-0.0162	-0.0161	7.354521	0.03915
5	13.04923	0.0060845	-0.0191	-0.0190	7.354991	0.03939
6	13.04600	0.0060753	-0.0252	-0.0251	7.355524	0.03933
7	13.03475	0.0060753	-0.0222	-0.0220	7.357377	0.03934
8	13.02521	0.0060598	-0.0222	-0.0221	7.358954	0.03925
9	13.02229	0.0060660	-0.0221	-0.0220	7.359433	0.03929
10	13.02029	0.0060413	-0.0222	-0.0221	7.359771	0.03915
11	13.01798	0.0060196	-0.0283	-0.0281	7.360157	0.03902
12	13.01281	0.0059949	-0.0222	-0.0220	7.361015	0.03888
13	13.00692	0.0059732	-0.0252	-0.0251	7.361993	0.03875
14	13.00151	0.0059516	-0.0222	-0.0221	7.362891	0.03863
15	12.99927	0.0059331	-0.0222	-0.0220	7.363267	0.03852
16	12.99720	0.0058960	-0.0283	-0.0282	7.363617	0.03830
17	12.99586	0.0058712	-0.0222	-0.0221	7.363845	0.03816
18	12.99501	0.0058465	-0.0222	-0.0220	7.363992	0.03801
19	12.99350	0.0058156	-0.0313	-0.0311	7.364250	0.03783
20	12.99265	0.0057816	-0.0222	-0.0221	7.364400	0.03763
21	12.99167	0.0057723	-0.0283	-0.0281	7.364563	0.03758
22	12.99009	0.0057445	-0.0252	-0.0251	7.364831	0.03742
23	12.98748	0.0057260	-0.0190	-0.0189	7.365267	0.03731
24	12.98390	0.0057012	-0.0222	-0.0220	7.365865	0.03717
25	12.97328	0.0056703	-0.0190	-0.0189	7.367627	0.03699
26	12.94701	0.0056394	-0.0221	-0.0220	7.371977	0.03682
27	12.92039	0.0056147	-0.0222	-0.0220	7.376386	0.03669
28	12.90427	0.0055931	-0.0251	-0.0250	7.379061	0.03657
29	12.88399	0.0055745	-0.0221	-0.0220	7.382427	0.03647
30	12.86310	0.0055591	-0.0190	-0.0189	7.385894	0.03639
31	12.84635	0.0055560	-0.0129	-0.0128	7.388675	0.03638
32	12.84199	0.0055683	-0.0251	-0.0250	7.389395	0.03645
33	12.83510	0.0055931	-0.0251	-0.0250	7.390533	0.03660
34	12.82688	0.0056394	-0.0190	-0.0189	7.391886	0.03688
35	12.82397	0.0056858	-0.0190	-0.0189	7.392355	0.03715
36	12.82162	0.0057538	-0.0251	-0.0250	7.392729	0.03756
37	12.81660	0.0058465	-0.0189	-0.0188	7.393537	0.03811
38	12.80403	0.0059331	-0.0190	-0.0189	7.395602	0.03863
39	12.79582	0.0059887	-0.0190	-0.0189	7.396953	0.03896
40	12.77825	0.0060505	-0.0250	-0.0248	7.399860	0.03934
41	12.74415	0.0061556	-0.0190	-0.0189	7.405509	0.03998
42	12.71190	0.0063164	-0.0159	-0.0158	7.410844	0.04096
43	12.69461	0.0063999	-0.0189	-0.0188	7.413707	0.04146
44	12.69461	0.0067215	-0.0189	-0.0188	7.413618	0.04338
45	12.69744	0.0068730	-0.0219	-0.0218	7.413103	0.04429
46	12.68124	0.0069039	-0.0189	-0.0188	7.415800	0.04449
47	12.64135	0.0069008	-0.0158	-0.0157	7.422472	0.04450
48	12.58798	0.0069194	-0.0188	-0.0187	7.431405	0.04465
49	12.54135	0.0069534	-0.0219	-0.0218	7.439222	0.04488
50	12.50562	0.0069720	-0.0158	-0.0157	7.445223	0.04502
51	12.47627	0.0070307	-0.0249	-0.0248	7.450147	0.04540
52	12.46681	0.0070616	-0.0219	-0.0218	7.451732	0.04559
53	12.46172	0.0070245	-0.0218	-0.0217	7.452599	0.04537
54	12.45651	0.0069812	-0.0219	-0.0217	7.453489	0.04511
55	12.44431	0.0069101	-0.0158	-0.0157	7.455566	0.04469
56	12.44102	0.0068328	-0.0188	-0.0187	7.456143	0.04423
57	12.44108	0.0067648	-0.0157	-0.0156	7.456152	0.04382
58	12.43887	0.0067060	-0.0218	-0.0217	7.456542	0.04347
59	12.40945	0.0067586	-0.0218	-0.0217	7.461491	0.04380
60	12.36221	0.0067122	-0.0187	-0.0186	7.469489	0.04356
61	12.31932	0.0066751	-0.0217	-0.0216	7.476762	0.04336
62	12.28899	0.0066503	-0.0157	-0.0156	7.481913	0.04323
63	12.27583	0.0066009	-0.0218	-0.0217	7.484161	0.04294
64	12.26350	0.0065947	-0.0156	-0.0155	7.486255	0.04291
65	12.23697	0.0068173	-0.0188	-0.0187	7.490702	0.04428
66	12.19999	0.0072782	-0.0248	-0.0246	7.496863	0.04711
67	12.17860	0.0076463	-0.0186	-0.0185	7.500400	0.04937
68	12.17480	0.0082527	-0.0157	-0.0156	7.500874	0.05309
69	12.15931	0.0086241	-0.0187	-0.0186	7.503408	0.05539
70	12.13433	0.0090513	-0.0217	-0.0215	7.507547	0.05805
71	12.13302	0.0094135	-0.0156	-0.0155	7.507664	0.06029
72	12.13231	0.0092989	-0.0155	-0.0154	7.507819	0.05958
73	12.12638	0.0089646	-0.0216	-0.0215	7.508929	0.05752
74	12.12863	0.0086922	-0.0217	-0.0215	7.508623	0.05584
75	12.12922	0.0085251	-0.0155	-0.0154	7.508570	0.05481
76	12.10883	0.0084879	-0.0186	-0.0185	7.512064	0.05460
77	12.08921	0.0085715	-0.0125	-0.0124	7.515393	0.05514
78	12.07760	0.0087139	-0.0246	-0.0245	7.517337	0.05603
79	12.06843	0.0089305	-0.0216	-0.0215	7.518845	0.05738
80	12.07298	0.0090729	-0.0216	-0.0215	7.518023	0.05825
81	12.07796	0.0091627	-0.0154	-0.0153	7.517146	0.05880
82	12.09158	0.0091999	-0.0215	-0.0214	7.514805	0.05902
83	12.10871	0.0092246	-0.0154	-0.0153	7.511871	0.05915
84	12.11837	0.0093237	-0.0123	-0.0123	7.510191	0.05975
85	12.12857	0.0094878	-0.0184	-0.0183	7.508402	0.06076
86	12.13338	0.0095869	-0.0002	-0.0002	7.507553	0.06136
87	11.97765	1.6321307	0.0941	0.0936	6.944629	13.07823
88	11.10476	2.4247518	0.2221	0.2208	6.752995	20.62046
89	10.33976	2.4595241	0.3802	0.3781	6.836223	21.38636
90	9.83533	2.4724509	0.5599	0.5568	6.895879	21.81067
91	9.49756	2.4769854	0.7150	0.7111	6.937964	22.06028
92	9.28552	2.4813463	0.8490	0.8443	6.963903	22.23386
93	9.15903	2.4921834	0.9555	0.9502	6.975812	22.41950
94	9.08141	2.5058095	1.0438	1.0381	6.980036	22.60307
95	9.02934	2.5124733	1.1047	1.0986	6.983951	22.70213
96	9.00132	2.4902396	1.1169	1.1107	6.997511	22.49945
97	9.01934	2.4931715	1.1260	1.1198	6.993825	22.51713
98	9.08956	2.4979716	1.1169	1.1107	6.982424	22.52034
99	9.14620	2.5038317	1.1199	1.1137	6.972377	22.54254
100	9.18421	2.5063599	1.1200	1.1138	6.966269	22.54353
101	9.20462	2.5092020	1.1200	1.1138	6.962340	22.55870
102	9.21044	2.5123410	1.1169	1.1107	6.960199	22.58600
103	9.21687	2.5154018	1.1291	1.1229	6.958015	22.61213
104	9.21802	2.5168132	1.1413	1.1351	6.957245	22.62532
105	9.20133	2.5202178	1.1595	1.1532	6.957939	22.66949
106	9.16067	2.5254761	1.1778	1.1713	6.960955	22.74725
107	9.11546	2.5298202	1.1870	1.1804	6.964967	22.81906
108	9.09339	2.5326435	1.1840	1.1774	6.966615	22.86114
109	9.07878	2.5348287	1.1779	1.1714	6.967566	22.89216
110	9.05597	2.5399778	1.1688	1.1624	6.968280	22.95789
111	9.02727	2.5455192	1.1475	1.1412	6.969589	23.03141
112	9.00170	2.5489949	1.1353	1.1291	6.971398	23.08249
113	8.98701	2.5517857	1.1292	1.1230	6.972085	23.11977
114	8.98215	2.5530900	1.1323	1.1261	6.972142	23.13590
115	8.98090	2.5542400	1.1475	1.1412	6.971797	23.14815
116	8.97931	2.5562601	1.1659	1.1594	6.971108	23.16927
117	8.98095	2.5551155	1.1721	1.1656	6.971401	23.15682
118	8.99695	2.5503501	1.1720	1.1656	6.971420	23.09903
119	9.00809	2.5521517	1.1538	1.1474	6.969162	23.10973
120	9.00252	2.5625528	1.1324	1.1262	6.965280	23.21680
121	8.99116	2.5596949	1.1264	1.1202	6.968032	23.19576
122	8.97069	2.5567067	1.1385	1.1322	6.972038	23.17934
123	8.95716	2.5559684	1.1568	1.1504	6.974139	23.18078
124	8.95640	2.5585501	1.1690	1.1626	6.973092	23.20699
125	8.96272	2.5581779	1.1812	1.1747	6.972428	23.19915
126	8.98346	2.5517286	1.1903	1.1838	6.972576	23.12148
127	8.99203	2.5500871	1.1782	1.1717	6.972181	23.09960
128	8.98341	2.5579087	1.1721	1.1657	6.969840	23.18301
129	8.97664	2.5646385	1.1629	1.1565	6.967738	23.25442
130	8.96856	2.5638593	1.1446	1.1383	6.969140	23.25194
131	8.95481	2.5622610	1.1325	1.1262	6.971649	23.24499
132	8.94581	2.5609494	1.1204	1.1142	6.973410	23.23780
133	8.94532	2.5603653	1.1113	1.1052	6.973734	23.23231
134	8.94816	2.5599759	1.1204	1.1143	6.973536	23.22657
135	8.94871	2.5606058	1.1418	1.1355	6.973184	23.23249
136	8.94669	2.5625017	1.1691	1.1627	6.972606	23.25268
137	8.94543	2.5641631	1.1814	1.1749	6.972032	23.27006
138	8.94860	2.5634641	1.1843	1.1778	6.971929	23.26102
139	8.96856	2.5575138	1.1844	1.1779	6.971959	23.18874
140	8.98379	2.5549782	1.1783	1.1719	6.971091	23.15360
141	8.98810	2.5606341	1.1570	1.1506	6.968016	23.20709
142	9.00421	2.5683007	1.1418	1.1355	6.962511	23.27288
143	9.00825	2.5679567	1.1358	1.1296	6.962136	23.26682
144	9.00012	2.5695622	1.1357	1.1294	6.962487	23.28811
145	8.99296	2.5716956	1.1266	1.1204	6.962474	23.31403
146	8.98859	2.5732330	1.1358	1.1295	6.962362	23.33219
147	8.98439	2.5735830	1.1480	1.1417	6.962756	23.33842
148	8.97948	2.5740019	1.1663	1.1599	6.963211	23.34581
149	8.98401	2.5706060	1.1723	1.1658	6.964127	23.30902
150	8.99870	2.5654406	1.1694	1.1630	6.964500	23.24801
151	8.99553	2.5641914	1.1603	1.1539	6.965467	23.23765
152	8.99198	2.5678766	1.1420	1.1357	6.964296	23.27665
153	9.00743	2.5752469	1.1207	1.1146	6.959012	23.33991
154	9.01197	2.5785531	1.1146	1.1085	6.956956	23.36985
155	9.00536	2.5760331	1.1237	1.1175	6.958934	23.34909
156	8.99597	2.5755396	1.1481	1.1418	6.960378	23.35032
157	8.98346	2.5774224	1.1756	1.1691	6.961174	23.37726
158	8.97528	2.5797132	1.1816	1.1751	6.961225	23.40546
159	8.97735	2.5761080	1.1817	1.1752	6.962555	23.36818
160	8.99760	2.5683008	1.1756	1.1691	6.963374	23.27718
161	9.00268	2.5637845	1.1604	1.1541	6.964713	23.22893
162	9.02606	2.5623922	1.1360	1.1298	6.962275	23.19987
163	9.07730	2.5693436	1.1087	1.1026	6.952517	23.23560
164	9.12505	2.5766979	1.0936	1.0876	6.943063	23.27750
165	9.14017	2.5855598	1.0905	1.0845	6.937201	23.35555
166	9.12609	2.5905155	1.1056	1.0995	6.936846	23.41395
167	9.09071	2.5994524	1.1239	1.1177	6.937491	23.52599
168	9.05531	2.6022459	1.1545	1.1481	6.940844	23.57713
169	9.03601	2.5911374	1.1666	1.1602	6.948259	23.47929
170	9.03344	2.5749884	1.1757	1.1692	6.955737	23.32030
171	9.02464	2.5649074	1.1666	1.1602	6.961347	23.22579
172	9.06155	2.5654400	1.1544	1.1481	6.956296	23.20707
173	9.12932	2.5818598	1.1393	1.1330	6.940237	23.32592
174	9.16506	2.5900493	1.1393	1.1331	6.932003	23.38379
175	9.16089	2.5919473	1.1424	1.1361	6.931709	23.40534
176	9.11951	2.5872440	1.1454	1.1391	6.939139	23.38577
177	9.08026	2.5853075	1.1545	1.1482	6.945087	23.39225
178	9.05854	2.5834230	1.1485	1.1422	6.948742	23.38775
179	9.05044	2.5782370	1.1515	1.1452	6.952086	23.34149
180	9.03240	2.5748450	1.1395	1.1332	6.955936	23.31956
181	9.03486	2.5784955	1.1181	1.1120	6.954000	23.35427
182	9.04399	2.5829922	1.1060	1.0999	6.950823	23.39302
183	9.04749	2.5779098	1.0970	1.0909	6.952614	23.34019
184	9.02645	2.5694243	1.0970	1.0910	6.959111	23.26956
185	9.00072	2.5688626	1.1274	1.1212	6.962718	23.28076
186	8.98319	2.5725848	1.1548	1.1484	6.963356	23.32927
187	8.97151	2.5746274	1.1730	1.1666	6.963974	23.35726
188	8.96965	2.5717589	1.1792	1.1727	6.965490	23.32989
189	8.96813	2.5681291	1.1791	1.1727	6.967301	23.29474
190	8.99203	2.5666958	1.1640	1.1576	6.964813	23.26485
191	9.07484	2.5665059	1.1214	1.1153	6.954091	23.20902
192	9.16320	2.5717057	1.0789	1.0729	6.940303	23.20320
193	9.22368	2.5732655	1.0637	1.0578	6.931770	23.17942
194	9.23900	2.6044451	1.0820	1.0760	6.916142	23.47802
195	9.18766	2.6671002	1.1184	1.1123	6.895292	24.13407
196	9.12466	2.6935221	1.1612	1.1548	6.891719	24.44013
197	9.07293	2.7124094	1.1886	1.1821	6.889979	24.66440
198	9.03650	2.6806206	1.2099	1.2032	6.908641	24.37156
199	9.01765	2.6181505	1.2008	1.1942	6.938687	23.76056
200	9.01639	2.6004262	1.1795	1.1730	6.946695	23.58474
201	9.06631	2.6069419	1.1399	1.1337	6.937346	23.61660
202	9.13053	2.6154194	1.0821	1.0762	6.925312	23.65841
203	9.18179	2.6505437	1.0457	1.0399	6.903299	23.97340
204	9.21429	2.6494476	1.0274	1.0217	6.899622	23.94074
205	9.21648	2.6576967	1.0427	1.0370	6.895731	24.02120
206	9.16895	2.6778484	1.0762	1.0703	6.892964	24.25373
207	9.11009	2.6801425	1.1371	1.1308	6.899458	24.31660
208	9.06193	2.6815171	1.1797	1.1732	6.904998	24.36315
209	9.02929	2.6695779	1.1920	1.1854	6.914443	24.26611
210	9.01093	2.6553075	1.1949	1.1883	6.923109	24.13597
211	9.00383	2.6471539	1.1889	1.1824	6.927630	24.05931
212	9.02934	2.6451891	1.1738	1.1673	6.925217	24.02249
213	9.06609	2.6484807	1.1494	1.1431	6.919041	24.03059
214	9.10117	2.6615006	1.1221	1.1159	6.908804	24.13675
215	9.12417	2.6660896	1.1099	1.1038	6.903842	24.16693
216	9.13464	2.6660488	1.0948	1.0887	6.902523	24.15945
217	9.12225	2.6771213	1.0948	1.0888	6.899236	24.27820
218	9.09449	2.6971978	1.0979	1.0919	6.893938	24.49753
219	9.06291	2.7081187	1.1163	1.1101	6.893140	24.62843
220	9.03650	2.7091534	1.1345	1.1283	6.896039	24.65702
221	9.01721	2.7083061	1.1588	1.1524	6.898866	24.66188
222	9.00459	2.7026686	1.1680	1.1616	6.902964	24.61413
223	9.00203	2.6839871	1.1803	1.1738	6.911558	24.42884
224	9.00279	2.6727182	1.1742	1.1677	6.916447	24.31557
225	9.01093	2.6586040	1.1681	1.1617	6.921649	24.16892
226	9.04235	2.6549185	1.1620	1.1557	6.919246	24.11083
227	9.08409	2.6555506	1.1499	1.1435	6.913613	24.08895
228	9.12943	2.6590848	1.1408	1.1345	6.906250	24.09358
229	9.16841	2.6646366	1.1256	1.1194	6.898830	24.12256
230	9.19469	2.6776038	1.1196	1.1134	6.889795	24.23383
231	9.20534	2.6779878	1.1196	1.1134	6.888272	24.23043
232	9.19836	2.6720302	1.1288	1.1226	6.891768	24.17588
233	9.16451	2.6735078	1.1441	1.1378	6.895435	24.21349
234	9.12154	2.6753582	1.1655	1.1590	6.900103	24.26108
235	9.09098	2.6754632	1.1928	1.1862	6.903957	24.28290
236	9.07375	2.6716126	1.1989	1.1923	6.907857	24.25619
237	9.06713	2.6658402	1.1929	1.1863	6.911249	24.20307
238	9.06023	2.6593525	1.1837	1.1772	6.914995	24.14299
239	9.08529	2.6583015	1.1534	1.1471	6.912246	24.11557
240	9.12351	2.6601300	1.1260	1.1199	6.906548	24.10799
241	9.15744	2.6666297	1.1048	1.0988	6.899355	24.14981
242	9.16939	2.6690534	1.1018	1.0957	6.896766	24.16586
243	9.15398	2.6615466	1.1292	1.1230	6.902029	24.10153
244	9.10506	2.6516173	1.1535	1.1471	6.912658	24.03561
245	9.05668	2.6507246	1.1870	1.1805	6.919259	24.05930
246	9.02208	2.6535031	1.1932	1.1866	6.922475	24.11040
247	9.00596	2.6562998	1.1993	1.1927	6.923308	24.14925
248	8.99236	2.6581166	1.1781	1.1716	6.924250	24.17664
249	9.00880	2.6588247	1.1507	1.1444	6.921825	24.17258
250	9.05028	2.6584818	1.1325	1.1263	6.916654	24.14105
251	9.08130	2.6563282	1.1174	1.1113	6.913628	24.09860
252	9.09624	2.6550747	1.1234	1.1172	6.912265	24.07602
253	9.09082	2.6511128	1.1418	1.1355	6.914705	24.04017
254	9.05794	2.6423964	1.1661	1.1597	6.922773	23.97539
255	9.02224	2.6388470	1.1875	1.1810	6.928937	23.96396
256	9.00148	2.6469105	1.2058	1.1992	6.928041	24.05846
257	8.99171	2.6533003	1.2028	1.1962	6.926468	24.12892
258	8.98210	2.6574086	1.1877	1.1811	6.925882	24.17652
259	9.00645	2.6582964	1.1452	1.1389	6.922360	24.16889
260	9.04930	2.6584586	1.1178	1.1116	6.916790	24.14149
261	9.08786	2.6560786	1.0964	1.0904	6.912895	24.09168
262	9.11365	2.6488687	1.0813	1.0754	6.912764	24.00247
263	9.12028	2.6452172	1.0935	1.0875	6.913521	23.96165
264	9.11672	2.6429173	1.1240	1.1178	6.914991	23.94113
265	9.08365	2.6247225	1.1666	1.1602	6.927261	23.78207
266	9.04120	2.6116529	1.2063	1.1997	6.938514	23.68013
267	9.01246	2.6243360	1.2428	1.2359	6.936620	23.82570
268	9.00072	2.6428430	1.2550	1.2481	6.929941	24.01833
269	8.98827	2.6535788	1.2399	1.2331	6.926787	24.13403
270	9.00722	2.6554410	1.2155	1.2089	6.923527	24.13981
271	9.05017	2.6556321	1.1639	1.1575	6.917927	24.11267
272	9.09175	2.6537635	1.1213	1.1151	6.913418	24.06597
273	9.12275	2.6398362	1.0848	1.0788	6.915572	23.90644
274	9.13918	2.6303348	1.0634	1.0576	6.917638	23.80094
275	9.14149	2.6325151	1.0637	1.0578	6.916383	23.82109
276	9.11321	2.6088785	1.0911	1.0851	6.930426	23.60485
277	9.05690	2.5743570	1.1307	1.1245	6.952961	23.29871
278	9.00383	2.5622320	1.1763	1.1699	6.965252	23.21274
279	8.96545	2.5597238	1.2312	1.2244	6.971385	23.21275
280	8.94238	2.5785192	1.2466	1.2397	6.966048	23.41516
281	8.93218	2.6105696	1.2648	1.2578	6.953124	23.74185
282	8.92253	2.6358149	1.2496	1.2427	6.943146	24.00077
283	8.93714	2.6446394	1.2222	1.2155	6.937336	24.07922
284	8.97997	2.6430748	1.1766	1.1701	6.932510	24.03466
285	9.03049	2.6412441	1.1309	1.1247	6.926813	23.98236
286	9.06953	2.6350439	1.0946	1.0886	6.924526	23.89434
287	9.09432	2.6113698	1.0702	1.0643	6.931769	23.64213
288	9.10620	2.6033285	1.0673	1.0614	6.933777	23.55432
289	9.10013	2.6086653	1.0857	1.0797	6.932211	23.61139
290	9.06187	2.5881930	1.1190	1.1129	6.946200	23.43301
291	9.01464	2.5735312	1.1527	1.1464	6.958832	23.31810
292	8.97544	2.5685074	1.2105	1.2038	6.966178	23.29371
293	8.94701	2.5703368	1.2441	1.2373	6.969081	23.33053
294	8.93098	2.5951423	1.2714	1.2644	6.960141	23.58855
295	8.92166	2.6137652	1.2655	1.2585	6.953067	23.78081
296	8.92014	2.6254635	1.2381	1.2313	6.948060	23.89882
297	8.95351	2.6260065	1.1621	1.1557	6.943499	23.88188
298	8.99826	2.6083894	1.0921	1.0861	6.945518	23.67616
299	9.03027	2.5944912	1.0375	1.0318	6.947518	23.51650
300	9.03661	2.5793050	1.0435	1.0377	6.953413	23.36120
301	9.00312	2.5656525	1.0709	1.0651	6.963826	23.24726
302	8.96300	2.5659452	1.1319	1.1257	6.968941	23.27635
303	8.93044	2.5663237	1.1868	1.1802	6.973033	23.30140
304	8.90935	2.5723044	1.2233	1.2166	6.973130	23.37487
305	8.89774	2.5918978	1.2295	1.2227	6.965915	23.57818
306	8.89088	2.6003755	1.2143	1.2076	6.963031	23.66748
307	8.90646	2.6006172	1.1840	1.1775	6.960895	23.65955
308	8.94053	2.5989643	1.1505	1.1441	6.957198	23.62043
309	8.96862	2.5947967	1.1384	1.1321	6.955396	23.56023
310	8.98914	2.5889238	1.1445	1.1382	6.955332	23.48813
311	9.00181	2.5881935	1.1446	1.1383	6.954008	23.47251
312	9.00645	2.5892572	1.1415	1.1353	6.952933	23.48005
313	9.01017	2.5923282	1.1477	1.1414	6.951089	23.50819
314	9.01333	2.5955732	1.1417	1.1354	6.949241	23.53842
315	9.01432	2.5974841	1.1417	1.1354	6.948267	23.55681
316	9.01443	2.5967416	1.1478	1.1415	6.948581	23.54934
317	9.01339	2.5935478	1.1540	1.1477	6.950131	23.51821
318	9.01257	2.5908385	1.1572	1.1508	6.951437	23.49176
319	9.01153	2.5902749	1.1723	1.1659	6.951822	23.48683
320	9.01262	2.5901771	1.1846	1.1781	6.951723	23.48513
321	9.01459	2.5920061	1.1938	1.1873	6.950658	23.50204
322	9.01650	2.5946525	1.1969	1.1903	6.949238	23.52714
323	9.01803	2.5963041	1.1879	1.1814	6.948308	23.54258
324	9.01825	2.5964940	1.1788	1.1723	6.948195	23.54434
325	9.02563	2.5953602	1.1483	1.1420	6.947739	23.52818
326	9.04137	2.5949227	1.1301	1.1239	6.945889	23.51345
327	9.05684	2.5944910	1.1211	1.1149	6.944071	23.49896
328	9.06669	2.5935703	1.1273	1.1211	6.943201	23.48332
329	9.07030	2.5927016	1.1333	1.1271	6.943116	23.47230
330	9.07139	2.5919768	1.1335	1.1272	6.943294	23.46437
331	9.07003	2.5920861	1.1456	1.1393	6.943423	23.46636
332	9.06822	2.5933402	1.1458	1.1395	6.943104	23.48001
333	9.06975	2.5942492	1.1549	1.1486	6.942504	23.48804
334	9.07145	2.5943125	1.1732	1.1668	6.942256	23.48755
335	9.07161	2.5937372	1.1885	1.1820	6.942489	23.48172
336	9.07079	2.5940076	1.2129	1.2063	6.942477	23.48494
337	9.07052	2.5950030	1.2099	1.2032	6.942073	23.49502
338	9.07024	2.5950894	1.1948	1.1882	6.942070	23.49606
339	9.07517	2.5947383	1.1705	1.1640	6.941586	23.48934
340	9.09142	2.5943354	1.1401	1.1338	6.939656	23.47465
341	9.10451	2.5937081	1.1219	1.1158	6.938236	23.45982
342	9.10779	2.5931385	1.1371	1.1309	6.938062	23.45200
343	9.10675	2.5930867	1.1434	1.1371	6.938219	23.45216
344	9.10369	2.5933802	1.1434	1.1372	6.938488	23.45709
345	9.10122	2.5940879	1.1465	1.1402	6.938495	23.46574
346	9.10139	2.5938520	1.1283	1.1221	6.938577	23.46330
347	9.09865	2.5937599	1.1192	1.1131	6.938973	23.46418
348	9.09805	2.5932134	1.1223	1.1161	6.939292	23.45915
349	9.09504	2.5916257	1.1558	1.1494	6.940383	23.44534
350	9.06576	2.5881125	1.1984	1.1919	6.945733	23.42963
351	9.02432	2.5876760	1.2290	1.2222	6.951311	23.45251
352	8.99886	2.5904648	1.2382	1.2314	6.953386	23.49705
353	8.98182	2.5917590	1.2291	1.2224	6.955028	23.52119
354	8.96873	2.5928578	1.2109	1.2043	6.956244	23.54080
355	8.98106	2.5931683	1.1563	1.1499	6.954501	23.53577
356	9.00066	2.5921097	1.1168	1.1106	6.952421	23.51229
357	9.00814	2.5904072	1.0954	1.0894	6.952202	23.49040
358	9.00962	2.5894124	1.0956	1.0895	6.952451	23.47952
359	8.99793	2.5883833	1.1107	1.1046	6.954428	23.47696
360	8.97462	2.5875729	1.1504	1.1440	6.957822	23.48424
361	8.95269	2.5879238	1.1900	1.1835	6.960523	23.50219
362	8.93938	2.5895452	1.2144	1.2078	6.961536	23.52714
363	8.93229	2.5913510	1.2024	1.1958	6.961656	23.54986
364	8.92684	2.5924670	1.1903	1.1837	6.961869	23.56461
365	8.92886	2.5909255	1.1629	1.1565	6.962292	23.54789
366	8.93398	2.5898673	1.1417	1.1354	6.962095	23.53395
367	8.93251	2.5896833	1.1509	1.1445	6.962369	23.53308
368	8.92482	2.5900514	1.1570	1.1506	6.963207	23.54184
369	8.92063	2.5912994	1.1662	1.1598	6.963198	23.55707
370	8.92123	2.5920874	1.1814	1.1749	6.962770	23.56454
371	8.92014	2.5927777	1.1938	1.1872	6.962605	23.57215
372	8.92646	2.5935715	1.1907	1.1842	6.961428	23.57589
373	8.93687	2.5939224	1.1787	1.1722	6.959916	23.57250
374	8.94914	2.5940086	1.1727	1.1663	6.958280	23.56524
375	8.96071	2.5935712	1.1665	1.1601	6.956970	23.55323
376	8.96791	2.5924896	1.1636	1.1572	6.956513	23.53768
377	8.96867	2.5921387	1.1637	1.1573	6.956569	23.53368
378	8.96212	2.5921100	1.1698	1.1634	6.957434	23.53772
379	8.95678	2.5928982	1.1789	1.1724	6.957780	23.54911
380	8.95678	2.5936000	1.1669	1.1605	6.957468	23.55612
381	8.95907	2.5944113	1.1608	1.1544	6.956809	23.56270
382	8.97740	2.5945435	1.1457	1.1394	6.954366	23.55190
383	8.99957	2.5936284	1.1427	1.1364	6.951890	23.52813
384	9.01044	2.5931106	1.1549	1.1485	6.950708	23.51580
385	9.01317	2.5928804	1.1733	1.1669	6.950455	23.51170
386	9.01191	2.5931393	1.1947	1.1881	6.950504	23.51510
387	9.01279	2.5937089	1.2069	1.2002	6.950138	23.52019
388	9.01448	2.5939793	1.2039	1.1973	6.949798	23.52177
389	9.01437	2.5940598	1.2040	1.1974	6.949777	23.52264
390	9.01514	2.5943821	1.1979	1.1913	6.949535	23.52535
391	9.02399	2.5947215	1.1828	1.1763	6.948235	23.52289
392	9.03864	2.5948422	1.1647	1.1583	6.946279	23.51444
393	9.05034	2.5945486	1.1464	1.1401	6.944890	23.50381
394	9.05783	2.5940537	1.1465	1.1402	6.944137	23.49395
395	9.05980	2.5938696	1.1435	1.1372	6.943963	23.49083
396	9.05701	2.5939559	1.1588	1.1524	6.944287	23.49352
397	9.05230	2.5941401	1.1862	1.1797	6.944816	23.49844
398	9.05105	2.5942206	1.1924	1.1858	6.944944	23.50007
399	9.05258	2.5943875	1.1954	1.1888	6.944672	23.50072
400	9.05329	2.5946292	1.1864	1.1799	6.944472	23.50266
401	9.05876	2.5949801	1.1652	1.1587	6.943607	23.50255
402	9.06652	2.5945945	1.1410	1.1347	6.942770	23.49361
403	9.07019	2.5940306	1.1348	1.1286	6.942543	23.48559
404	9.06434	2.5938178	1.1532	1.1469	6.943397	23.48732
405	9.05094	2.5939272	1.1806	1.1741	6.945088	23.49722
406	9.03055	2.5939792	1.2020	1.1954	6.947712	23.51117
407	9.02055	2.5943302	1.2052	1.1985	6.948855	23.52126
408	9.01869	2.5947733	1.1899	1.1834	6.948900	23.52690
409	9.03383	2.5948422	1.1717	1.1653	6.946904	23.51761
410	9.04673	2.5947961	1.1505	1.1442	6.945249	23.50865
411	9.05050	2.5948996	1.1385	1.1322	6.944714	23.50720
412	9.04913	2.5956017	1.1385	1.1322	6.944581	23.51509
413	9.04563	2.5960276	1.1476	1.1413	6.944847	23.52163
414	9.04082	2.5966320	1.1508	1.1445	6.945204	23.53082
415	9.02749	2.5974725	1.1721	1.1657	6.946563	23.54798
416	9.00754	2.5969949	1.1843	1.1778	6.949363	23.55640
417	8.99793	2.5953029	1.1967	1.1901	6.951362	23.54588
418	8.99318	2.5949807	1.1906	1.1841	6.952122	23.54581
419	8.99984	2.5949518	1.1754	1.1689	6.951269	23.54113
420	9.01705	2.5959530	1.1603	1.1539	6.948590	23.53975
421	9.02781	2.5966896	1.1603	1.1539	6.946867	23.53998
422	9.03027	2.5973631	1.1727	1.1663	6.946250	23.54505
423	9.02841	2.5969544	1.1879	1.1814	6.946672	23.54221
424	9.02732	2.5959472	1.1880	1.1814	6.947260	23.53290
425	9.02590	2.5947905	1.1820	1.1755	6.947956	23.52232
426	9.02809	2.5945488	1.1607	1.1543	6.947779	23.51848
427	9.04148	2.5949515	1.1090	1.1029	6.945861	23.51367
428	9.05285	2.5969542	1.0968	1.0908	6.943500	23.52611
429	9.05602	2.6020961	1.0969	1.0909	6.940817	23.57519
430	9.04339	2.6274911	1.1396	1.1334	6.931230	23.83653
431	9.01470	2.6413022	1.1945	1.1879	6.928821	23.99354
432	8.99023	2.6359416	1.2220	1.2153	6.934349	23.95646
433	8.97637	2.6141398	1.2495	1.2426	6.945808	23.74805
434	8.96485	2.6052254	1.2342	1.2274	6.951257	23.66674
435	8.96551	2.6038482	1.2191	1.2124	6.951783	23.65257
436	8.98319	2.6037386	1.1826	1.1761	6.949536	23.63975
437	9.00170	2.6049427	1.1248	1.1186	6.946600	23.63950
438	9.01508	2.6185373	1.0883	1.0824	6.938846	23.76617
439	9.01973	2.6273526	1.0823	1.0764	6.934344	23.85099
440	9.01978	2.6235444	1.0977	1.0917	6.936023	23.81297
441	9.00345	2.6337890	1.1220	1.1159	6.933596	23.92612
442	8.98188	2.6409666	1.1800	1.1735	6.933198	24.01230
443	8.96496	2.6422409	1.2257	1.2190	6.934814	24.03643
444	8.95607	2.6271335	1.2532	1.2463	6.942669	23.89139
445	8.95203	2.6133496	1.2624	1.2554	6.949313	23.75638
446	8.95072	2.6058940	1.2350	1.2282	6.952795	23.68281
447	8.96927	2.6067583	1.1895	1.1830	6.950002	23.67912
448	8.99236	2.6117283	1.1195	1.1133	6.944803	23.71338
449	9.00793	2.6231343	1.0861	1.0801	6.937736	23.81680
450	9.01514	2.6235213	1.0832	1.0773	6.936633	23.81584
451	9.01186	2.6262024	1.0984	1.0923	6.935869	23.84478
452	8.99307	2.6404974	1.1442	1.1379	6.931963	24.00008
453	8.97446	2.6486091	1.1990	1.1924	6.930766	24.09370
454	8.96163	2.6455547	1.2447	1.2379	6.933773	24.07181
455	8.95596	2.6276133	1.2569	1.2500	6.942470	23.89626
456	8.95258	2.6174699	1.2540	1.2471	6.947412	23.79718
457	8.95454	2.6152825	1.2206	1.2139	6.948129	23.77403
458	8.97020	2.6168117	1.1506	1.1443	6.945420	23.77887
459	8.98548	2.6303592	1.0868	1.0808	6.937434	23.90394
460	8.99400	2.6366997	1.0564	1.0506	6.933525	23.96156
461	8.99324	2.6474379	1.0778	1.0719	6.928866	24.06934
462	8.97789	2.6682936	1.1297	1.1235	6.921597	24.28830
463	8.96169	2.6778735	1.2058	1.1992	6.919427	24.39526
464	8.95051	2.6657541	1.2363	1.2295	6.926240	24.28151
465	8.94511	2.6471486	1.2425	1.2357	6.935195	24.09893
466	8.93878	2.6426523	1.2242	1.2175	6.938008	24.05823
467	8.93742	2.6414071	1.1818	1.1753	6.938737	24.04670
468	8.94303	2.6508068	1.1391	1.1328	6.933836	24.13698
469	8.94947	2.6658935	1.1240	1.1178	6.926309	24.28366
470	8.95165	2.6810405	1.1301	1.1239	6.919306	24.43390
471	8.94636	2.6909694	1.1667	1.1603	6.915577	24.53706
472	8.93862	2.6933604	1.2125	1.2058	6.915506	24.56636
473	8.93256	2.6933838	1.2308	1.2241	6.916270	24.57077
474	8.92935	2.6856830	1.2278	1.2210	6.920102	24.49574
475	8.92864	2.6690439	1.2035	1.1969	6.927585	24.32941
476	8.92793	2.6625010	1.1488	1.1425	6.930584	24.26435
477	8.92739	2.6688230	1.1032	1.0972	6.927843	24.32809
478	8.92804	2.6879673	1.0850	1.0791	6.919252	24.51960
479	8.92581	2.6945621	1.0851	1.0791	6.916608	24.58731
480	8.92352	2.6967091	1.1156	1.1094	6.915947	24.61043
481	8.92085	2.6874079	1.1521	1.1458	6.920422	24.51892
482	8.91997	2.6663122	1.1979	1.1914	6.929913	24.30796
483	8.91937	2.6520655	1.2193	1.2126	6.936326	24.16561
484	8.92744	2.6493979	1.2284	1.2217	6.936472	24.13342
485	8.94363	2.6510040	1.2346	1.2278	6.933673	24.13852
486	8.95901	2.6523783	1.2225	1.2158	6.931082	24.14185
487	8.97064	2.6528886	1.1891	1.1826	6.929360	24.13909
488	8.97784	2.6550235	1.1405	1.1343	6.927486	24.15557
489	8.98166	2.6646963	1.0919	1.0859	6.922707	24.24975
490	8.98324	2.6715610	1.0645	1.0586	6.919462	24.31737
491	8.98253	2.6677355	1.0554	1.0496	6.921248	24.27957
492	8.97544	2.6710551	1.0829	1.0770	6.920687	24.31763
493	8.96589	2.6784672	1.1226	1.1164	6.918625	24.39836
494	8.95520	2.6795908	1.1834	1.1769	6.919497	24.41692
495	8.94887	2.6678928	1.2232	1.2165	6.925500	24.30405
496	8.94521	2.6613858	1.2353	1.2286	6.928859	24.24138
497	8.94325	2.6569620	1.2415	1.2347	6.931076	24.19842
498	8.95121	2.6560798	1.2142	1.2076	6.930443	24.18418
499	8.96191	2.6565672	1.1747	1.1682	6.928851	24.18181
500	8.96889	2.6628607	1.1351	1.1289	6.925161	24.24006
501	8.97085	2.6704795	1.1109	1.1048	6.921530	24.31499
502	8.97015	2.6753595	1.1050	1.0989	6.919457	24.36433
503	8.96660	2.6766280	1.1202	1.1140	6.919349	24.37945
504	8.95781	2.6730908	1.1537	1.1474	6.922044	24.35003
505	8.95187	2.6645804	1.1659	1.1595	6.926584	24.26886
506	8.94816	2.6602186	1.1873	1.1808	6.928998	24.22770
507	8.95149	2.6591328	1.1995	1.1929	6.929052	24.21456
508	8.96027	2.6589818	1.1966	1.1900	6.927990	24.20708
509	8.96753	2.6593243	1.1905	1.1840	6.926905	24.20558
510	8.97358	2.6597422	1.1572	1.1508	6.925941	24.20566
511	8.97991	2.6627445	1.1237	1.1175	6.923797	24.23140
512	8.98395	2.6663407	1.1147	1.1086	6.921685	24.26463
513	8.98499	2.6666196	1.1391	1.1329	6.921428	24.26671
514	8.97871	2.6667882	1.1605	1.1541	6.922159	24.27266
515	8.96873	2.6652252	1.1940	1.1874	6.924134	24.26381
516	8.96360	2.6631048	1.2154	1.2087	6.925734	24.24608
517	8.95814	2.6623846	1.2185	1.2118	6.926754	24.24258
518	8.95541	2.6616064	1.2126	1.2059	6.927450	24.23665
519	8.95923	2.6613450	1.1821	1.1756	6.927074	24.23144
520	8.96829	2.6614959	1.1395	1.1332	6.925843	24.22681
521	8.97588	2.6634764	1.1123	1.1062	6.923991	24.24147
522	8.97882	2.6662013	1.1276	1.1214	6.922405	24.26673
523	8.97653	2.6667883	1.2068	1.2002	6.922440	24.27413
524	8.95929	2.6650858	1.3012	1.2940	6.925409	24.26881
525	8.93742	2.6642611	1.4382	1.4303	6.928587	24.27541
526	8.91796	2.6542466	1.5510	1.5424	6.935543	24.18831
527	8.90319	2.6535796	1.6666	1.6575	6.937744	24.19162
528	8.89524	2.6824155	1.7884	1.7786	6.925933	24.48623
529	8.89104	2.6933902	1.9406	1.9300	6.921587	24.59927
530	8.88925	2.7003693	2.0960	2.0845	6.918713	24.67057
531	8.89137	2.7435561	2.2756	2.2631	6.899230	25.10341
532	8.89780	2.7924229	2.4675	2.4539	6.876700	25.59133
533	8.90782	2.8300039	2.6958	2.6809	6.858764	25.96348
534	8.91905	2.8693940	2.9090	2.8930	6.839906	26.35354
535	8.93011	2.8987198	3.1372	3.1200	6.825556	26.64220
536	8.94123	2.9286317	3.3688	3.3502	6.810962	26.93699
537	8.95149	2.9505103	3.6061	3.5863	6.800047	27.15112
538	8.96005	2.9664393	3.8527	3.8315	6.791976	27.30621
539	8.96725	2.9847386	4.0720	4.0496	6.783033	27.48650
540	8.97391	3.0021755	4.2882	4.2646	6.774545	27.65853
541	8.97866	3.0007609	4.5134	4.4886	6.774601	27.64037
542	8.98122	2.9955299	4.7570	4.7309	6.776601	27.58511
543	8.98182	2.9977445	5.0005	4.9730	6.775557	27.60706
544	8.98248	3.0003058	5.2564	5.2275	6.774354	27.63248
545	8.98308	3.0020907	5.5303	5.4999	6.773500	27.65006
546	8.98384	3.0074963	5.7830	5.7512	6.771031	27.70433
547	8.98554	3.0288442	6.0296	5.9964	6.761429	27.92010
548	8.99171	3.0708715	6.2763	6.2417	6.742202	28.34328
549	9.00072	3.0882566	6.5198	6.4839	6.733495	28.51331
550	9.00907	3.0943957	6.7756	6.7382	6.729815	28.56914
551	9.01601	3.1016887	7.0314	6.9926	6.725798	28.63788
552	9.02186	3.1077271	7.2871	7.2469	6.722463	28.69469
553	9.02361	3.1119050	7.5459	7.5043	6.720429	28.73582
554	9.02322	3.1138255	7.7956	7.7526	6.719635	28.75563
555	9.02246	3.1156602	8.0482	8.0038	6.718925	28.77487
556	9.02158	3.1171998	8.2887	8.2430	6.718356	28.79120
557	9.02093	3.1182961	8.5475	8.5004	6.717957	28.80282
558	9.02060	3.1217893	8.7911	8.7426	6.716467	28.83866
559	9.01885	3.1259250	9.0469	8.9970	6.714862	28.88221
560	9.01519	3.1274111	9.3055	9.2541	6.714644	28.90026
561	9.01148	3.1286630	9.5522	9.4995	6.714534	28.91596
562	9.00836	3.1296930	9.8019	9.7478	6.714452	28.92892
563	9.00596	3.1306862	10.0424	9.9870	6.714302	28.94092
564	9.00399	3.1322039	10.2891	10.2323	6.713870	28.95793
565	9.00044	3.1347649	10.5235	10.4654	6.713166	28.98691
566	8.99482	3.1375612	10.7579	10.6985	6.712601	29.01999
567	8.98783	3.1412108	11.0013	10.9406	6.711820	29.06292
568	8.97893	3.1471981	11.2511	11.1890	6.710235	29.13137
569	8.96769	3.1525033	11.5006	11.4371	6.709221	29.19480
570	8.95651	3.1580160	11.7565	11.6916	6.708108	29.26036
571	8.94505	3.1653472	12.0062	11.9399	6.706222	29.34484
572	8.92880	3.1696290	12.2620	12.1942	6.706236	29.40208
573	8.90940	3.1754633	12.5144	12.4453	6.705930	29.47793
574	8.88636	3.1816121	12.7643	12.6938	6.705905	29.56014
575	8.85446	3.1872251	13.0138	12.9419	6.707142	29.64436
576	8.81536	3.1891326	13.2575	13.1842	6.710852	29.69658
577	8.78456	3.1896548	13.4827	13.4082	6.714212	29.72767
578	8.76501	3.1902639	13.7143	13.6385	6.716223	29.75025
579	8.75106	3.1925757	13.9394	13.8623	6.716825	29.78573
580	8.73408	3.1955596	14.1830	14.1046	6.717480	29.83073
581	8.71071	3.1980284	14.4265	14.3468	6.719108	29.87583
582	8.68247	3.1988870	14.6823	14.6011	6.722019	29.90843
583	8.65648	3.1996462	14.9441	14.8615	6.724715	29.93816
584	8.63348	3.1991924	15.1969	15.1128	6.727604	29.95282
585	8.61298	3.1987947	15.4496	15.3642	6.730179	29.96595
586	8.59611	3.1991308	15.6932	15.6063	6.732002	29.98363
587	8.58373	3.1993424	15.9306	15.8425	6.733357	29.99623
588	8.57336	3.1997718	16.1711	16.0817	6.734380	30.00939
589	8.56331	3.1997720	16.4025	16.3117	6.735558	30.01782
590	8.55300	3.2000770	16.6370	16.5449	6.736630	30.02965
591	8.54506	3.2006867	16.8714	16.7780	6.737288	30.04264
592	8.53988	3.2008113	17.1210	17.0263	6.737842	30.04823
593	8.53594	3.2001707	17.3828	17.2866	6.738595	30.04482
594	8.52989	3.1993435	17.6538	17.5561	6.739679	30.04125
595	8.52175	3.1991322	17.9461	17.8467	6.740732	30.04586
596	8.51479	3.1991324	18.2141	18.1132	6.741551	30.05167
597	8.50939	3.1990392	18.4790	18.3767	6.742229	30.05518
598	8.50330	3.1990394	18.7347	18.6309	6.742946	30.06026
599	8.49570	3.1991328	18.9843	18.8792	6.743798	30.06760
600	8.48869	3.1993444	19.2308	19.1243	6.744528	30.07567
601	8.48184	3.1998982	19.4686	19.3607	6.745084	30.08717
602	8.47408	3.2021877	19.7089	19.5997	6.744964	30.11751
603	8.46244	3.2040173	19.9526	19.8420	6.745505	30.14640
604	8.44903	3.2050258	20.1992	20.0873	6.746624	30.16826
605	8.43665	3.2052438	20.4398	20.3265	6.747979	30.18103
606	8.42782	3.2061590	20.6924	20.5777	6.748603	30.19802
607	8.41754	3.2073607	20.9389	20.8228	6.749268	30.21925
608	8.40280	3.2081454	21.1976	21.0801	6.750643	30.23997
609	8.38494	3.2088243	21.4474	21.3285	6.752430	30.26227
610	8.36387	3.2089118	21.6971	21.5768	6.754863	30.28119
611	8.34405	3.2086692	21.9407	21.8190	6.757300	30.29560
612	8.32611	3.2082710	22.1781	22.0551	6.759588	30.30677
613	8.29837	3.2087010	22.4309	22.3064	6.762652	30.33507
614	8.27133	3.2090687	22.6561	22.5304	6.765660	30.36214
615	8.25354	3.2093430	22.8936	22.7666	6.767629	30.38028
616	8.24250	3.2111493	23.1158	22.9875	6.768105	30.40866
617	8.23548	3.2123142	23.3533	23.2237	6.768402	30.42685
618	8.22847	3.2129311	23.5849	23.4540	6.768948	30.43929
619	8.21851	3.2134796	23.8283	23.6960	6.769871	30.45357
620	8.20379	3.2136355	24.0719	23.9383	6.771534	30.46786
621	8.18864	3.2136669	24.3185	24.1835	6.773303	30.48123
622	8.17784	3.2137606	24.5499	24.4136	6.774534	30.49149
623	8.16965	3.2140349	24.7996	24.6619	6.775375	30.50137
624	8.16158	3.2147703	25.0462	24.9071	6.775991	30.51601
625	8.15126	3.2146770	25.2746	25.1342	6.777251	30.52390
626	8.13095	3.2140355	25.5058	25.3641	6.779938	30.53472
627	8.10932	3.2136370	25.7251	25.5822	6.782671	30.54926
628	8.08872	3.2149271	25.9625	25.8183	6.784507	30.58070
629	8.05953	3.2155694	26.1879	26.0424	6.787652	30.61284
630	8.02004	3.2151710	26.4225	26.2756	6.792495	30.64307
631	7.98026	3.2151715	26.6690	26.5208	6.797192	30.67780
632	7.94701	3.2151719	26.9065	26.7569	6.801121	30.70687
633	7.91431	3.2151100	27.1531	27.0021	6.805017	30.73483
634	7.88488	3.2151727	27.4057	27.2534	6.808471	30.76127
635	7.85962	3.2151731	27.6707	27.5169	6.811465	30.78341
636	7.83734	3.2151110	27.8868	27.7317	6.814135	30.80231
637	7.81904	3.2150303	28.1091	27.9527	6.816343	30.81749
638	7.80653	3.2149619	28.3192	28.1617	6.817861	30.82772
639	7.79790	3.2148998	28.5171	28.3585	6.818917	30.83461
640	7.79053	3.2148688	28.7180	28.5583	6.819808	30.84070
641	7.78566	3.2148377	28.9283	28.7674	6.820405	30.84458
642	7.78174	3.2147132	29.1504	28.9883	6.820932	30.84663
643	7.77724	3.2147133	29.3881	29.2245	6.821470	30.85050
644	7.77231	3.2146511	29.6255	29.4606	6.822088	30.85409
645	7.76654	3.2146201	29.8843	29.7180	6.822792	30.85875
646	7.75940	3.2145019	30.1278	29.9601	6.823699	30.86371
647	7.75162	3.2146204	30.3652	30.1962	6.824571	30.87176
648	7.74315	3.2146829	30.5876	30.4173	6.825551	30.87982
649	7.73627	3.2146519	30.7884	30.6170	6.826385	30.88549
650	7.72807	3.2146520	30.9773	30.8048	6.827362	30.89268
651	7.71591	3.2146210	31.1600	30.9865	6.828824	30.90305
652	7.70375	3.2145651	31.3183	31.1439	6.830297	30.91317
653	7.69286	3.2144407	31.4889	31.3135	6.831652	30.92143
654	7.68324	3.2143225	31.6777	31.5012	6.832854	30.92863
655	7.67601	3.2141668	31.8786	31.7010	6.833791	30.93331
656	7.67067	3.2139800	32.0856	31.9069	6.834517	30.93596
657	7.66576	3.2138555	32.2927	32.1128	6.835163	30.93891
658	7.65895	3.2134569	32.5210	32.3398	6.836165	30.94061
659	7.63788	3.2133700	32.7402	32.5578	6.838716	30.95831
660	7.60391	3.2130589	32.9534	32.7697	6.842910	30.98514
661	7.57476	3.2125110	33.1573	32.9725	6.846644	31.00518
662	7.55148	3.2119569	33.3552	33.1693	6.849685	31.01994
663	7.53263	3.2117454	33.5379	33.3510	6.852037	31.03442
664	7.51926	3.2116210	33.7116	33.5236	6.853694	31.04496
665	7.51000	3.2114405	33.8791	33.6902	6.854888	31.05123
666	7.50322	3.2112849	34.0374	33.8476	6.855775	31.05556
667	7.49543	3.2109798	34.2049	34.0142	6.856853	31.05918
668	7.48581	3.2110111	34.3723	34.1807	6.857990	31.06805
669	7.47703	3.2106687	34.5551	34.3624	6.859205	31.07216
670	7.46731	3.2103948	34.7286	34.5349	6.860500	31.07785
671	7.45596	3.2100899	34.9266	34.7318	6.862006	31.08466
672	7.44430	3.2099717	35.1122	34.9163	6.863460	31.09376
673	7.43489	3.2097850	35.3193	35.1223	6.864677	31.10009
674	7.42770	3.2096295	35.5142	35.3160	6.865615	31.10478
675	7.42229	3.2095424	35.7182	35.5189	6.866308	31.10861
676	7.41867	3.2094803	35.9527	35.7521	6.866776	31.11108
677	7.41594	3.2095115	36.1445	35.9427	6.867091	31.11378
678	7.41400	3.2094804	36.3120	36.1093	6.867342	31.11511
679	7.41285	3.2094182	36.4794	36.2758	6.867513	31.11541
680	7.41180	3.2094183	36.6286	36.4241	6.867641	31.11628
681	7.41064	3.2093249	36.7747	36.5694	6.867827	31.11625
682	7.40770	3.2092378	36.9088	36.7028	6.868223	31.11789
683	7.40403	3.2092503	37.0519	36.8450	6.868659	31.12126
684	7.40172	3.2092068	37.2133	37.0055	6.868960	31.12279
685	7.39967	3.2091135	37.3838	37.1750	6.869253	31.12355
686	7.39674	3.2089579	37.5725	37.3627	6.869682	31.12443
687	7.39118	3.2088708	37.7522	37.5414	6.870393	31.12841
688	7.38488	3.2088087	37.9471	37.7352	6.871181	31.13330
689	7.38000	3.2087777	38.1481	37.9350	6.871784	31.13726
690	7.37612	3.2087155	38.3491	38.1348	6.872282	31.13999
691	7.37198	3.2084416	38.5438	38.3285	6.872913	31.14068
692	7.36611	3.2083172	38.7297	38.5133	6.873680	31.14454
693	7.35956	3.2081368	38.9002	38.6829	6.874555	31.14841
694	7.35269	3.2079501	39.0587	38.8404	6.875470	31.15251
695	7.34651	3.2077946	39.2138	38.9946	6.876289	31.15632
696	7.34043	3.2072779	39.3508	39.1309	6.877268	31.15617
697	7.33341	3.2070041	39.5031	39.2824	6.878244	31.15947
698	7.32666	3.2069420	39.6646	39.4429	6.879087	31.16481
699	7.32158	3.2068487	39.8382	39.6155	6.879745	31.16830
700	7.31733	3.2049814	40.0119	39.7882	6.881153	31.15195
701	7.29634	3.2011672	40.1914	39.9667	6.885508	31.12969
702	7.24629	3.1990902	40.3834	40.1576	6.892531	31.15228
703	7.19150	3.1978718	40.5751	40.3482	6.899722	31.18846
704	7.14288	3.1973874	40.7547	40.5269	6.905825	31.22708
705	7.10629	3.1968033	40.9464	40.7175	6.910529	31.25379
706	7.07927	3.1959829	41.1202	40.8903	6.914197	31.26932
707	7.05710	3.1947149	41.2967	41.0657	6.917499	31.27561
708	7.03593	3.1938201	41.4582	41.2263	6.920500	31.28504
709	7.01731	3.1930621	41.6257	41.3929	6.923127	31.29365
710	7.00256	3.1922978	41.7931	41.5593	6.925291	31.29869
711	6.99035	3.1920867	41.9606	41.7259	6.926878	31.30741
712	6.98230	3.1919315	42.1342	41.8984	6.927933	31.31297
713	6.97684	3.1911735	42.3048	42.0680	6.928968	31.30962
714	6.96968	3.1908381	42.4752	42.2375	6.930005	31.31241
715	6.96283	3.1906021	42.6610	42.4222	6.930956	31.31600
716	6.95732	3.1902294	42.8466	42.6068	6.931809	31.31687
717	6.95162	3.1900183	43.0324	42.7916	6.932610	31.31968
718	6.94700	3.1898382	43.2273	42.9854	6.933262	31.32184
719	6.94311	3.1896830	43.4224	43.1793	6.933815	31.32360
720	6.93984	3.1895651	43.6171	43.3729	6.934274	31.32521
721	6.93730	3.1895030	43.8059	43.5606	6.934617	31.32676
722	6.93527	3.1894099	43.9886	43.7423	6.934912	31.32751
723	6.93372	3.1890994	44.1772	43.9298	6.935257	31.32546
724	6.93102	3.1887702	44.3509	44.1026	6.935749	31.32426
725	6.92791	3.1887454	44.5306	44.2812	6.936143	31.32674
726	6.92542	3.1885902	44.7011	44.4508	6.936525	31.32724
727	6.92365	3.1883170	44.8869	44.6355	6.936877	31.32579
728	6.92111	3.1881059	45.0787	44.8261	6.937294	31.32572
729	6.91821	3.1879196	45.2888	45.0351	6.937742	31.32624
730	6.91515	3.1876464	45.5049	45.2499	6.938252	31.32595
731	6.91173	3.1874602	45.7211	45.4649	6.938764	31.32694
732	6.90846	3.1873733	45.9130	45.6557	6.939208	31.32889
733	6.90577	3.1873175	46.0958	45.8374	6.939567	31.33065
734	6.90385	3.1873176	46.2084	45.9494	6.939802	31.33235
735	6.90255	3.1872866	46.2876	46.0281	6.939977	31.33315
736	6.90167	3.1873176	46.3362	46.0765	6.940070	31.33427
737	6.90115	3.1874978	46.3302	46.0705	6.940044	31.33671
738	6.90198	3.1878332	46.3185	46.0589	6.939778	31.33961
739	6.90395	3.1875909	46.3002	46.0407	6.939657	31.33518
740	6.90442	3.1877089	46.2910	46.0315	6.939543	31.33605
741	6.90426	3.1872866	46.2941	46.0347	6.939769	31.33159
742	6.90245	3.1873735	46.3065	46.0469	6.939947	31.33418
743	6.90157	3.1872555	46.3277	46.0680	6.940113	31.33369
744	6.90095	3.1872555	46.3522	46.0923	6.940189	31.33425
745	6.90058	3.1872866	46.3827	46.1227	6.940218	31.33490
746	6.90053	3.1871935	46.4133	46.1532	6.940271	31.33392
747	6.90012	3.1870755	46.4377	46.1774	6.940380	31.33301
748	6.89924	3.1871003	46.4591	46.1987	6.940475	31.33407
749	6.89841	3.1870693	46.4744	46.2139	6.940591	31.33448
750	6.89820	3.1871314	46.4988	46.2381	6.940587	31.33533
751	6.89825	3.1871314	46.5323	46.2715	6.940581	31.33527
752	6.89835	3.1871004	46.5416	46.2807	6.940584	31.33483
753	6.89815	3.1872867	46.4959	46.2353	6.940517	31.33707
754	6.89929	3.1877711	46.4139	46.1538	6.940139	31.34134
755	6.90224	3.1877835	46.3136	46.0540	6.939771	31.33883
756	6.90447	3.1874666	46.2071	45.9481	6.939653	31.33340
757	6.90463	3.1873734	46.1006	45.8423	6.939678	31.33229
758	6.90411	3.1873175	45.9913	45.7335	6.939766	31.33221
759	6.90385	3.1873734	45.8818	45.6247	6.939768	31.33310
760	6.90380	3.1872864	45.7752	45.5187	6.939815	31.33225
761	6.90390	3.1873733	45.6689	45.4129	6.939757	31.33315
762	6.90452	3.1873484	45.5654	45.3101	6.939692	31.33236
763	6.90509	3.1873981	45.4742	45.2194	6.939596	31.33243
764	6.90540	3.1874353	45.3861	45.1318	6.939538	31.33259
765	6.90608	3.1875285	45.2979	45.0441	6.939409	31.33303
766	6.90706	3.1875284	45.2097	44.9564	6.939287	31.33217
767	6.90815	3.1877396	45.1002	44.8475	6.939049	31.33353
768	6.91002	3.1878327	44.9876	44.7356	6.938774	31.33289
769	6.91162	3.1877705	44.8477	44.5965	6.938606	31.33082
770	6.91251	3.1878326	44.6957	44.4453	6.938466	31.33076
771	6.91349	3.1880064	44.5343	44.2849	6.938257	31.33183
772	6.91489	3.1880436	44.3336	44.0853	6.938065	31.33105
773	6.91650	3.1881678	44.1451	43.8978	6.937805	31.33102
774	6.91800	3.1882546	43.9563	43.7102	6.937575	31.33068
775	6.91956	3.1883167	43.7707	43.5257	6.937352	31.33003
776	6.92091	3.1884098	43.5910	43.3470	6.937139	31.32989
777	6.92189	3.1884408	43.4208	43.1778	6.937000	31.32941
778	6.92267	3.1884966	43.2535	43.0114	6.936875	31.32939
779	6.92360	3.1886146	43.0711	42.8300	6.936700	31.32991
780	6.92485	3.1886829	42.8642	42.6243	6.936511	31.32961
781	6.92630	3.1887449	42.6664	42.4276	6.936300	31.32905
782	6.92723	3.1887448	42.4595	42.2219	6.936183	31.32830
783	6.92811	3.1889870	42.2587	42.0223	6.935953	31.33022
784	6.93014	3.1892603	42.0610	41.8257	6.935569	31.33144
785	6.93377	3.1897448	41.8723	41.6381	6.934887	31.33349
786	6.93942	3.1902914	41.6837	41.4505	6.933928	31.33437
787	6.94653	3.1906019	41.4951	41.2630	6.932909	31.33136
788	6.95312	3.1911734	41.3064	41.0753	6.931826	31.33166
789	6.96013	3.1917823	41.1088	40.8788	6.930674	31.33199
790	6.96812	3.1925714	40.9168	40.6880	6.929314	31.33338
791	6.97773	3.1934227	40.7101	40.4824	6.927729	31.33398
792	6.98915	3.1944295	40.5155	40.2889	6.925849	31.33460
793	7.00198	3.1950074	40.3147	40.0893	6.924008	31.32930
794	7.01498	3.1955543	40.1168	39.8925	6.922164	31.32351
795	7.02886	3.1960328	39.9130	39.6899	6.920246	31.31618
796	7.04513	3.1966543	39.7122	39.4902	6.917970	31.30822
797	7.06459	3.1985756	39.5023	39.2815	6.914678	31.31147
798	7.09957	3.2016231	39.3136	39.0939	6.908968	31.31281
799	7.15039	3.2037630	39.1189	38.9003	6.901799	31.28997
800	7.20199	3.2046213	38.9303	38.7128	6.895166	31.25261
801	7.24159	3.2050752	38.7509	38.5344	6.890181	31.22180
802	7.26883	3.2056288	38.5622	38.3467	6.886638	31.20328
803	7.28828	3.2060518	38.3736	38.1593	6.884093	31.19037
804	7.30247	3.2063877	38.1637	37.9505	6.882225	31.18131
805	7.31388	3.2066988	37.9566	37.7446	6.880702	31.17447
806	7.32446	3.2070037	37.7559	37.5451	6.879283	31.16832
807	7.33488	3.2071840	37.5552	37.3455	6.877942	31.16097
808	7.34394	3.2073084	37.3604	37.1518	6.876792	31.15424
809	7.35049	3.2074328	37.1626	36.9551	6.875943	31.14978
810	7.35547	3.2075198	36.9771	36.7707	6.875301	31.14632
811	7.36066	3.2076443	36.7945	36.5891	6.874616	31.14308
812	7.36732	3.2078247	36.6180	36.4136	6.873728	31.13911
813	7.37476	3.2078868	36.4416	36.2382	6.872803	31.13317
814	7.38126	3.2079801	36.2591	36.0567	6.871976	31.12842
815	7.38698	3.2081605	36.0766	35.8752	6.871202	31.12530
816	7.39327	3.2083472	35.8878	35.6875	6.870355	31.12174
817	7.39978	3.2084405	35.7084	35.5092	6.869528	31.11698
818	7.40471	3.2084715	35.5075	35.3094	6.868919	31.11298
819	7.40839	3.2084091	35.2854	35.0886	6.868504	31.10911
820	7.41085	3.2085398	35.0695	34.8739	6.868142	31.10840
821	7.41274	3.2085584	34.8839	34.6894	6.867904	31.10699
822	7.41416	3.2085895	34.7012	34.5077	6.867716	31.10613
823	7.41568	3.2085583	34.5187	34.3262	6.867545	31.10452
824	7.41689	3.2086205	34.3454	34.1538	6.867367	31.10418
825	7.41830	3.2087138	34.1719	33.9813	6.867149	31.10399
826	7.42140	3.2089254	33.9954	33.8059	6.866674	31.10356
827	7.42665	3.2091744	33.8221	33.6335	6.865924	31.10160
828	7.43463	3.2094482	33.6396	33.4520	6.864835	31.09747
829	7.44424	3.2095415	33.4448	33.2584	6.863638	31.08994
830	7.45186	3.2096036	33.2684	33.0830	6.862694	31.08386
831	7.45837	3.2098464	33.0797	32.8953	6.861796	31.08071
832	7.46720	3.2100580	32.9062	32.7229	6.860637	31.07515
833	7.47719	3.2102820	32.7147	32.5324	6.859333	31.06870
834	7.48613	3.2106431	32.5261	32.3449	6.858091	31.06466
835	7.49638	3.2110415	32.3467	32.1664	6.856673	31.05983
836	7.50790	3.2113777	32.1607	31.9816	6.855135	31.05321
837	7.51953	3.2117139	31.9815	31.8034	6.853584	31.04650
838	7.53342	3.2115891	31.8232	31.6459	6.851983	31.03282
839	7.55585	3.2118629	31.6529	31.4766	6.849175	31.01580
840	7.58293	3.2120806	31.4885	31.3132	6.845842	30.99404
841	7.60613	3.2122049	31.3029	31.1286	6.843017	30.97479
842	7.62311	3.2123853	31.1235	30.9502	6.840906	30.96167
843	7.63551	3.2125409	30.9257	30.7535	6.839353	30.95239
844	7.64490	3.2126279	30.7281	30.5570	6.838191	30.94505
845	7.65119	3.2127212	30.5302	30.3603	6.837396	30.94055
846	7.65620	3.2129080	30.3263	30.1575	6.836707	30.93818
847	7.66206	3.2128768	30.1345	29.9668	6.836021	30.93272
848	7.67389	3.2127021	29.9490	29.7823	6.834693	30.92044
849	7.68985	3.2126895	29.7696	29.6039	6.832799	30.90622
850	7.70507	3.2126269	29.6053	29.4405	6.831017	30.89212
851	7.71776	3.2126579	29.4318	29.2680	6.829492	30.88128
852	7.72738	3.2127512	29.2462	29.0835	6.828301	30.87383
853	7.73394	3.2128445	29.0638	28.9021	6.827475	30.86910
854	7.73844	3.2129067	28.8843	28.7236	6.826909	30.86585
855	7.74140	3.2129066	28.6925	28.5329	6.826553	30.86332
856	7.74352	3.2128754	28.5009	28.3424	6.826313	30.86119
857	7.74590	3.2128753	28.3031	28.1457	6.826027	30.85917
858	7.74929	3.2129375	28.1022	27.9459	6.825592	30.85693
859	7.75405	3.2129997	27.8984	27.7432	6.824993	30.85346
860	7.75871	3.2130245	27.7098	27.5558	6.824425	30.84969
861	7.76411	3.2130244	27.5183	27.3653	6.823781	30.84500
862	7.77014	3.2130554	27.3234	27.1715	6.823047	30.84008
863	7.77724	3.2131487	27.1378	26.9869	6.822158	30.83488
864	7.78508	3.2132171	26.9308	26.7812	6.821193	30.82877
865	7.79414	3.2132107	26.7393	26.5907	6.820118	30.82078
866	7.80685	3.2132417	26.5507	26.4032	6.818593	30.80996
867	7.82636	3.2131480	26.3467	26.2003	6.816321	30.79184
868	7.84895	3.2131477	26.1521	26.0068	6.813642	30.77201
869	7.87501	3.2132408	25.9391	25.7950	6.810510	30.75014
870	7.91144	3.2126548	25.7534	25.6103	6.806469	30.71198
871	7.95206	3.2127477	25.5434	25.4015	6.801622	30.67741
872	7.99112	3.2140681	25.3366	25.1958	6.796395	30.65722
873	8.02675	3.2144352	25.1420	25.0023	6.792019	30.63000
874	8.05415	3.2142168	24.9471	24.8085	6.788887	30.60383
875	8.07159	3.2138801	24.7433	24.6059	6.786983	30.58515
876	8.08375	3.2133628	24.5365	24.4002	6.785785	30.56918
877	8.09443	3.2131446	24.3386	24.2035	6.784624	30.55766
878	8.10297	3.2130510	24.1409	24.0068	6.783658	30.54932
879	8.10927	3.2129885	23.9371	23.8042	6.782941	30.54327
880	8.11407	3.2129012	23.7361	23.6043	6.782412	30.53825
881	8.11792	3.2128077	23.5292	23.3986	6.781998	30.53401
882	8.12187	3.2125646	23.3223	23.1929	6.781641	30.52810
883	8.12764	3.2122530	23.1094	22.9812	6.781101	30.51990
884	8.13464	3.2120099	22.9024	22.7753	6.780385	30.51134
885	8.14335	3.2114616	22.6925	22.5666	6.779608	30.49810
886	8.15751	3.2106019	22.4825	22.3578	6.778332	30.47685
887	8.17511	3.2093748	22.2606	22.1372	6.776820	30.44879
888	8.19228	3.2081790	22.0446	21.9223	6.775344	30.42144
889	8.20534	3.2076309	21.8346	21.7135	6.774055	30.40447
890	8.21444	3.2069894	21.6337	21.5137	6.773275	30.38996
891	8.22274	3.2066220	21.4176	21.2988	6.772463	30.37902
892	8.23093	3.2063479	21.2046	21.0870	6.771621	30.36916
893	8.23998	3.2061673	20.9946	20.8782	6.770635	30.35953
894	8.25091	3.2061920	20.7787	20.6635	6.769335	30.35045
895	8.26378	3.2064346	20.5595	20.4455	6.767709	30.34198
896	8.27777	3.2066211	20.3374	20.2246	6.765977	30.33196
897	8.29064	3.2069571	20.1124	20.0009	6.764309	30.32447
898	8.30223	3.2069569	19.8962	19.7860	6.762945	30.31458
899	8.31436	3.2067077	19.6771	19.5681	6.761631	30.30162
900	8.32719	3.2062219	19.4612	19.3534	6.760343	30.28559
901	8.34104	3.2053938	19.2269	19.1204	6.759089	30.26512
902	8.35694	3.2041426	19.0078	18.9025	6.757789	30.23848
903	8.37430	3.2031342	18.7918	18.6877	6.756207	30.21315
904	8.39156	3.2027357	18.5848	18.4818	6.754360	30.19428
905	8.40576	3.2022626	18.3687	18.2670	6.752906	30.17727
906	8.41679	3.2015718	18.1405	18.0401	6.751922	30.16073
907	8.42529	3.2009060	17.9031	17.8040	6.751222	30.14662
908	8.43159	3.2002340	17.6719	17.5741	6.750784	30.13433
909	8.43649	3.1994999	17.4437	17.3471	6.750538	30.12259
910	8.44225	3.1987970	17.2032	17.1080	6.750176	30.11045
911	8.45005	3.1980070	16.9751	16.8812	6.749613	30.09565
912	8.46115	3.1977892	16.7376	16.6450	6.748407	30.08402
913	8.47273	3.1978201	16.5004	16.4091	6.747032	30.07457
914	8.48287	3.1978510	16.2721	16.1821	6.745828	30.06635
915	8.49074	3.1979441	16.0438	15.9551	6.744860	30.06071
916	8.49607	3.1980621	15.8096	15.7222	6.744178	30.05749
917	8.50006	3.1982797	15.5815	15.4953	6.743609	30.05646
918	8.50411	3.1984910	15.3532	15.2683	6.743036	30.05531
919	8.50880	3.1986464	15.1250	15.0413	6.742413	30.05303
920	8.51365	3.1986711	14.8907	14.8084	6.741830	30.04925
921	8.51802	3.1986151	14.6625	14.5815	6.741340	30.04505
922	8.52126	3.1985839	14.4343	14.3545	6.740971	30.04206
923	8.52412	3.1985527	14.2089	14.1304	6.740646	30.03940
924	8.52908	3.1929447	13.9747	13.8975	6.742583	29.97701
925	8.53599	3.1982290	13.7435	13.6675	6.739395	30.02614
926	8.54409	3.1981542	13.5122	13.4375	6.738478	30.01858
927	8.55418	3.1976690	13.2841	13.2107	6.737511	30.00506
928	8.56677	3.1975755	13.0528	12.9807	6.736078	29.99350
929	8.58195	3.1962944	12.8094	12.7386	6.734875	29.96743
930	8.60254	3.1936458	12.5809	12.5114	6.733651	29.92262
931	8.62964	3.1912404	12.3529	12.2846	6.731558	29.87488
932	8.65713	3.1899290	12.1215	12.0546	6.728928	29.83820
933	8.67966	3.1889596	11.8993	11.8335	6.726726	29.80928
934	8.69743	3.1882698	11.6742	11.6098	6.724954	29.78729
935	8.71103	3.1874373	11.4492	11.3860	6.723733	29.76734
936	8.72356	3.1850090	11.2207	11.1588	6.723349	29.73183
937	8.74091	3.1801546	10.9896	10.9290	6.723478	29.66726
938	8.76631	3.1763388	10.7552	10.6959	6.722203	29.60676
939	8.79232	3.1725309	10.5179	10.4599	6.720850	29.54591
940	8.81705	3.1689664	10.2776	10.2209	6.719536	29.48873
941	8.83923	3.1659920	10.0401	9.9847	6.718257	29.43981
942	8.85882	3.1608886	9.7966	9.7426	6.718220	29.37122
943	8.87781	3.1569765	9.5564	9.5037	6.717723	29.31543
944	8.89442	3.1528621	9.3159	9.2645	6.717593	29.25960
945	8.90918	3.1500110	9.0847	9.0346	6.717119	29.21829
946	8.92177	3.1458259	8.8533	8.8044	6.717486	29.16513
947	8.93442	3.1434839	8.6342	8.5865	6.717033	29.13085
948	8.94554	3.1410066	8.4091	8.3627	6.716817	29.09646
949	8.95558	3.1387648	8.1779	8.1328	6.716624	29.06538
950	8.96529	3.1364865	7.9435	7.8997	6.716484	29.03423
951	8.97462	3.1347643	7.7061	7.6636	6.716144	29.00909
952	8.98133	3.1332152	7.4536	7.4125	6.716033	28.98787
953	8.98521	3.1317281	7.2101	7.1704	6.716228	28.96960
954	8.98799	3.1312962	6.9577	6.9193	6.716087	28.96302
955	8.99051	3.1291064	6.7171	6.6801	6.716750	28.93869
956	8.99400	3.1275276	6.4891	6.4533	6.717030	28.91980
957	8.99799	3.1272747	6.2608	6.2263	6.716669	28.91407
958	9.00154	3.1251537	6.0385	6.0053	6.717180	28.88960
959	9.00536	3.1237852	5.8072	5.7752	6.717328	28.87260
960	9.00956	3.1220657	5.5698	5.5391	6.717585	28.85172
961	9.01344	3.1199091	5.3385	5.3091	6.718072	28.82665
962	9.01710	3.1174945	5.0983	5.0702	6.718698	28.79912
963	9.01945	3.1152776	4.8578	4.8311	6.719391	28.77468
964	9.02093	3.1141570	4.6084	4.5830	6.719705	28.76215
965	9.02164	3.1125811	4.3648	4.3408	6.720308	28.74559
966	9.02218	3.1115162	4.1243	4.1016	6.720707	28.73437
967	9.02235	3.1103162	3.9024	3.8809	6.721211	28.72208
968	9.02191	3.1072032	3.6740	3.6537	6.722624	28.69075
969	9.01989	3.1028371	3.4579	3.4389	6.724775	28.64791
970	9.01727	3.0976501	3.2327	3.2150	6.727357	28.59719
971	9.01361	3.0940137	2.9985	2.9820	6.729382	28.56312
972	9.01022	3.0909560	2.7429	2.7279	6.731121	28.53475
973	9.00776	3.0829734	2.4843	2.4706	6.734914	28.45540
974	9.00487	3.0733200	2.2254	2.2132	6.739495	28.35938
975	9.00093	3.0457289	1.9850	1.9741	6.752090	28.08148
976	8.99465	3.0142783	1.7536	1.7440	6.766677	27.76645
977	8.98597	2.9826116	1.5409	1.5325	6.781668	27.45143
978	8.97609	2.9559403	1.3490	1.3416	6.794621	27.18831
979	8.96638	2.9040121	1.1694	1.1630	6.818729	26.66938
980	8.95312	2.8048791	1.0113	1.0057	6.864218	25.67763
981	8.93093	2.7128433	0.8440	0.8393	6.907830	24.76736
982	8.90450	2.6904099	0.6096	0.6063	6.921171	24.56051
983	8.88467	2.6579374	0.2901	0.2885	6.938168	24.24839
984	8.87036	2.6711081	0.0253	0.0251	6.934137	24.39044
985	8.86486	0.7317087	0.0255	0.0254	7.802245	5.99091
986	8.86355	0.3064035	0.0254	0.0253	7.985636	2.36787
987	8.85860	2.5462119	0.2295	0.2283	6.991416	23.14798
988	8.85773	2.7140428	0.4639	0.4613	6.916620	24.83059
989	8.86312	2.7293298	0.5523	0.5492	6.909123	24.98068
990	8.86889	2.7332282	0.5037	0.5009	6.906652	25.01590
991	8.87286	2.7284388	0.3271	0.3253	6.908277	24.96495
992	8.87438	2.7228620	0.0897	0.0892	6.910563	24.90783
993	8.87313	2.7007484	0.0289	0.0287	6.920572	24.68630
994	8.86742	2.7014899	0.0230	0.0229	6.920972	24.69772
995	8.86050	2.7121947	0.0231	0.0229	6.917083	24.81021
996	8.85512	0.8190623	0.0200	0.0199	7.765510	6.76400
997	8.85087	0.4370636	0.0384	0.0382	7.932648	3.45481
998	8.84799	0.4299901	0.0263	0.0261	7.936206	3.39556
999	8.84641	0.4497692	0.0506	0.0503	7.928031	3.56235
1000	8.84217	0.4256978	0.0326	0.0324	7.939118	3.36003
1001	8.83428	0.3347791	0.0236	0.0235	7.979201	2.60324
1002	8.83010	0.2983102	0.0296	0.0294	7.995324	2.30378
1003	8.82770	0.3290763	0.0267	0.0265	7.982840	2.55667
1004	8.82548	0.3438685	0.0298	0.0296	7.977014	2.67899
1005	8.82325	0.3659558	0.0298	0.0296	7.968078	2.86230
1006	8.82047	0.3589216	0.0328	0.0326	7.971579	2.80410
1007	8.81710	0.3175336	0.0269	0.0268	7.989695	2.46237
1008	8.81308	0.2989704	0.0331	0.0329	7.998254	2.31029
1009	8.80830	0.3047368	0.0270	0.0269	7.996734	2.35786
1010	8.80259	0.3081205	0.0301	0.0300	7.996387	2.38600
1011	8.79656	0.3063931	0.0269	0.0268	7.998250	2.37223
1012	8.78983	0.3023469	0.0303	0.0301	8.001222	2.33947
1013	8.78412	0.2988971	0.0301	0.0300	8.003748	2.31156
1014	8.77994	0.2915785	0.0304	0.0302	8.007612	2.25190
1015	8.77500	0.2911048	0.0243	0.0242	8.008745	2.24833
1016	8.76935	0.2658650	0.0304	0.0302	8.020388	2.04280
1017	8.76246	0.2606330	0.0274	0.0272	8.023882	2.00068
1018	8.75703	0.2580347	0.0273	0.0272	8.025997	1.97989
1019	8.75187	0.2424269	0.0245	0.0243	8.033483	1.85376
1020	8.74650	0.2370984	0.0308	0.0306	8.036723	1.81101
1021	8.74097	0.2149130	0.0337	0.0335	8.046978	1.63281
1022	8.73533	0.2062377	0.0277	0.0275	8.051641	1.56361
1023	8.72985	0.2108874	0.0338	0.0336	8.050769	1.60106
1024	8.72399	0.2253973	0.0308	0.0307	8.045879	1.71782
1025	8.71781	0.2579040	0.0341	0.0339	8.033510	1.98101
1026	8.71163	0.2701017	0.0310	0.0308	8.029573	2.08063
1027	8.70545	0.2784984	0.0311	0.0309	8.027219	2.14953
1028	8.69878	0.2568070	0.0310	0.0309	8.037591	1.97315
1029	8.69315	0.2327208	0.0252	0.0250	8.048727	1.77836
1030	8.68952	0.2156133	0.0343	0.0341	8.056534	1.64079
1031	8.68524	0.2028891	0.0313	0.0311	8.062625	1.53900
1032	8.68009	0.1891440	0.0311	0.0310	8.069287	1.42952
1033	8.67532	0.1734345	0.0283	0.0282	8.076662	1.30496
1034	8.67164	0.1656056	0.0284	0.0282	8.080580	1.24318
1035	8.66817	0.1614969	0.0283	0.0281	8.082929	1.21088
1036	8.66384	0.1624175	0.0345	0.0343	8.083389	1.21829
1037	8.66011	0.1568269	0.0317	0.0316	8.086394	1.17436
1038	8.65648	0.1523505	0.0346	0.0344	8.088921	1.13928
1039	8.65356	0.1473491	0.0348	0.0346	8.091524	1.10011
1040	8.65134	0.1421972	0.0287	0.0285	8.094048	1.05982
1041	8.64998	0.1373449	0.0287	0.0286	8.096280	1.02193
1042	8.64917	0.1336049	0.0320	0.0318	8.097953	0.99278
1043	8.64646	0.1289823	0.0350	0.0348	8.100347	0.95685
1044	8.64230	0.1255653	0.0289	0.0287	8.102536	0.93040
1045	8.63975	0.1230360	0.0351	0.0349	8.104051	0.91083
1046	8.63705	0.1210724	0.0289	0.0287	8.105368	0.89567
1047	8.63423	0.1188177	0.0351	0.0349	8.106823	0.87827
1048	8.63050	0.1154350	0.0291	0.0289	8.108910	0.85219
1049	8.62639	0.1138768	0.0292	0.0291	8.110336	0.84024
1050	8.62277	0.1113665	0.0293	0.0291	8.112050	0.82094
1051	8.61855	0.1129100	0.0354	0.0352	8.112251	0.83296
1052	8.61438	0.1179009	0.0293	0.0291	8.111052	0.87165
1053	8.61054	0.1225604	0.0355	0.0353	8.109919	0.90788
1054	8.60757	0.1254903	0.0293	0.0292	8.109313	0.93072
1055	8.60476	0.1282215	0.0295	0.0293	8.108754	0.95204
1056	8.60205	0.1286264	0.0326	0.0324	8.109115	0.95527
1057	8.60097	0.1250305	0.0296	0.0295	8.110781	0.92732
1058	8.59843	0.1250045	0.0297	0.0295	8.111286	0.92718
1059	8.59514	0.1269028	0.0295	0.0294	8.111159	0.94203
1060	8.59162	0.1329538	0.0327	0.0326	8.109387	0.98929
1061	8.58941	0.1539473	0.0298	0.0297	8.101255	1.15399
1062	8.58930	0.1875475	0.0237	0.0235	8.087438	1.42042
1063	8.58876	0.1935139	0.0269	0.0267	8.085070	1.46809
1064	8.58676	0.1949767	0.0330	0.0329	8.084848	1.47987
1065	8.58460	0.1969373	0.0269	0.0268	8.084451	1.49565
1066	8.58303	0.1917771	0.0301	0.0299	8.086895	1.45444
1067	8.58152	0.1839232	0.0301	0.0299	8.090441	1.39182
1068	8.57811	0.1677489	0.0302	0.0300	8.097775	1.26341
1069	8.57390	0.1617023	0.0332	0.0330	8.101079	1.21571
1070	8.56920	0.1555551	0.0333	0.0332	8.104514	1.16732
1071	8.56450	0.1461383	0.0364	0.0362	8.109284	1.09334
1072	8.55996	0.1419280	0.0334	0.0332	8.111886	1.06042
1073	8.55607	0.1401291	0.0335	0.0333	8.113376	1.04643
1074	8.55332	0.1379874	0.0305	0.0303	8.114786	1.02973
1075	8.55057	0.1360375	0.0305	0.0303	8.116117	1.01454
1076	8.54776	0.1351271	0.0368	0.0366	8.117034	1.00750
1077	8.54463	0.1361686	0.0246	0.0244	8.117219	1.01574
1078	8.54128	0.1383021	0.0276	0.0275	8.117000	1.03254
1079	8.53761	0.1412615	0.0305	0.0303	8.116505	1.05585
1080	8.53405	0.1443560	0.0335	0.0333	8.115932	1.08026
1081	8.53043	0.1473953	0.0335	0.0333	8.115390	1.10427
1082	8.52725	0.1500232	0.0368	0.0366	8.114932	1.12506
1083	8.52439	0.1528420	0.0398	0.0396	8.114330	1.14737
1084	8.52121	0.1552546	0.0339	0.0337	8.113957	1.16652
1085	8.51878	0.1572962	0.0460	0.0457	8.113589	1.18273
1086	8.51641	0.1592865	0.0432	0.0430	8.113230	1.19854
1087	8.51382	0.1606960	0.0311	0.0309	8.113152	1.20979
1088	8.51101	0.1608615	0.0310	0.0308	8.113629	1.21119
1089	8.50842	0.1618016	0.0372	0.0370	8.113744	1.21872
