Scan Count	Temperature [ITS-90, deg C]	Conductivity [S/m]	Depth [salt water, m]	Oxygen Saturation, Weiss [ml/l]	Salinity, Practical [PSU]
1	19.21358	0.0018725	-0.0274	6.451542	0.01635
2	19.21089	0.0018416	-0.0304	6.451899	0.01621
3	19.20456	0.0018200	-0.0274	6.452728	0.01611
4	19.19809	0.0018879	-0.0304	6.453562	0.01641
5	19.19526	0.0018910	-0.0274	6.453931	0.01643
6	19.19577	0.0018262	-0.0273	6.453876	0.01614
7	19.19265	0.0017274	-0.0304	6.454301	0.01570
8	19.16258	0.0016564	-0.0365	6.458244	0.01538
9	19.11122	0.0015854	-0.0364	6.464979	0.01506
10	19.07153	0.0015299	-0.0274	6.470194	0.01481
11	19.03781	0.0015144	-0.0304	6.474625	0.01474
12	18.96282	0.0014867	-0.0304	6.484495	0.01460
13	18.88268	0.0014959	-0.0305	6.495068	0.01462
14	18.80568	0.0014774	-0.0335	6.505261	0.01453
15	18.74691	0.0014959	-0.0274	6.513053	0.01460
16	18.70693	0.0015114	-0.0214	6.518364	0.01466
17	18.68925	0.0016101	-0.0274	6.520699	0.01509
18	18.68445	0.0017027	-0.0304	6.521321	0.01550
19	18.66907	0.0017644	-0.0305	6.523358	0.01577
20	18.65384	0.0017891	-0.0275	6.525382	0.01588
21	18.63747	0.0018138	-0.0274	6.527559	0.01599
22	18.61790	0.0018601	-0.0274	6.530162	0.01620
23	18.59041	0.0017891	-0.0274	6.533843	0.01587
24	18.57536	0.0016842	-0.0335	6.535872	0.01540
25	18.57722	0.0015947	-0.0305	6.535640	0.01500
26	18.57607	0.0015206	-0.0304	6.535805	0.01467
27	18.55675	0.0014682	-0.0274	6.538397	0.01443
28	18.53288	0.0014496	-0.0274	6.541593	0.01435
29	18.51742	0.0014435	-0.0275	6.543663	0.01432
30	18.51906	0.0014342	-0.0304	6.543445	0.01428
31	18.53281	0.0014342	-0.0274	6.541605	0.01428
32	18.55069	0.0014249	-0.0274	6.539214	0.01424
33	18.55447	0.0013848	-0.0274	6.538716	0.01407
34	18.54663	0.0013879	-0.0274	6.539764	0.01408
35	18.55475	0.0013972	-0.0274	6.538676	0.01412
36	18.57115	0.0014342	-0.0305	6.536477	0.01429
37	18.57108	0.0014435	-0.0365	6.536485	0.01433
38	18.55974	0.0014404	-0.0274	6.538001	0.01431
39	18.56231	0.0013879	-0.0274	6.537667	0.01408
40	18.56909	0.0014682	-0.0305	6.536748	0.01444
41	18.56787	0.0014651	-0.0274	6.536910	0.01442
42	18.57215	0.0014342	-0.0275	6.536344	0.01429
43	18.58142	0.0013632	-0.0214	6.535117	0.01398
44	18.59962	0.0012923	-0.0274	6.532699	0.01368
45	18.62097	0.0012552	-0.0274	6.529856	0.01352
46	18.63790	0.0012120	-0.0214	6.527605	0.01334
47	18.65312	0.0011843	-0.0214	6.525581	0.01323
48	18.67157	0.0011503	-0.0304	6.523129	0.01309
49	18.68996	0.0011225	-0.0214	6.520686	0.01298
50	18.70528	0.0010948	-0.0274	6.518652	0.01286
51	18.72025	0.0010763	-0.0304	6.516665	0.01279
52	18.73687	0.0010608	-0.0244	6.514459	0.01273
53	18.75128	0.0010392	-0.0334	6.512548	0.01264
54	18.76218	0.0010238	-0.0214	6.511104	0.01258
55	18.77086	0.0010238	-0.0274	6.509952	0.01259
56	18.77761	0.0010146	-0.0244	6.509059	0.01255
57	18.78981	0.0010331	-0.0274	6.507438	0.01263
58	18.80000	0.0010300	-0.0244	6.506087	0.01262
59	18.80934	0.0010331	-0.0274	6.504849	0.01263
60	18.81710	0.0010238	-0.0305	6.503823	0.01260
61	18.82371	0.0010146	-0.0214	6.502949	0.01256
62	18.82378	0.0515357	0.0119	6.492397	0.28500
63	17.87756	2.4908862	0.1271	5.957919	17.84684
64	15.98411	3.0048546	0.2784	5.999980	22.98368
65	14.63246	3.1086127	0.4327	6.104461	24.69321
66	13.71941	3.1259672	0.5599	6.193261	25.43857
67	13.17392	3.1388838	0.6720	6.246184	25.92167
68	12.87759	3.1434318	0.7083	6.276038	26.16643
69	12.75877	3.1574294	0.6780	6.283664	26.37784
70	12.76142	3.1690264	0.6478	6.279195	26.48306
71	12.77832	3.1700177	0.6265	6.277039	26.48039
72	12.77766	3.1716228	0.6205	6.276531	26.49567
73	12.75828	3.1762480	0.6235	6.276921	26.55197
74	12.71294	3.1794862	0.6448	6.280572	26.61377
75	12.66409	3.1925125	0.6629	6.281044	26.76889
76	12.66440	3.2036422	0.6841	6.276977	26.87184
77	12.69342	3.2005875	0.6901	6.275008	26.82290
78	12.81021	3.2063600	0.6780	6.260569	26.79352
79	12.96566	3.2117188	0.6538	6.242274	26.73318
80	13.06538	3.2035446	0.6205	6.234710	26.58808
81	13.03648	3.1824240	0.6114	6.245259	26.41449
82	12.90945	3.1749132	0.6054	6.261365	26.43393
83	12.80030	3.1780648	0.6296	6.271804	26.53926
84	12.71583	3.1850963	0.6508	6.278235	26.66363
85	12.66783	3.2007370	0.6690	6.277667	26.84247
86	12.66909	3.2160077	0.6780	6.271998	26.98318
87	12.66783	3.2235693	0.6660	6.269391	27.05425
88	12.64586	3.2201838	0.6478	6.272940	27.03856
89	12.62674	3.2025165	0.6326	6.281379	26.88822
90	12.59693	3.1857370	0.6175	6.290648	26.75367
91	12.55226	3.1746441	0.6114	6.299454	26.68231
92	12.52605	3.1706586	0.6387	6.303712	26.66382
93	12.50759	3.1761886	0.6659	6.303665	26.72830
94	12.50358	3.2014105	0.6902	6.294874	26.96587
95	12.52072	3.2091455	0.6781	6.290224	27.02561
96	12.57651	3.2141708	0.6599	6.282469	27.03238
97	12.74151	3.2125433	0.6387	6.265595	26.89946
98	12.89133	3.1949524	0.6175	6.256100	26.63110
99	12.89727	3.1773319	0.6176	6.261788	26.46468
100	12.79432	3.1724966	0.6267	6.274445	26.49207
101	12.69842	3.1827316	0.6357	6.280941	26.65404
102	12.64586	3.2044637	0.6509	6.278644	26.89266
103	12.60763	3.2111994	0.6629	6.280251	26.98248
104	12.57063	3.1988164	0.6841	6.288686	26.89383
105	12.54003	3.1877681	0.6992	6.295973	26.81292
106	12.50088	3.1862223	0.7083	6.300714	26.82640
107	12.47914	3.2002974	0.7023	6.297884	26.97300
108	12.50010	3.2141404	0.6842	6.290590	27.08694
109	12.50214	3.1950124	0.6630	6.297366	26.90734
110	12.48010	3.1745580	0.6599	6.307203	26.73264
111	12.45597	3.1698103	0.6629	6.311526	26.70557
112	12.45651	3.1797929	0.6781	6.307809	26.79814
113	12.47537	3.2081997	0.6841	6.295393	27.04936
114	12.48201	3.2128823	0.6902	6.292972	27.08823
115	12.46758	3.1891103	0.7144	6.303213	26.87703
116	12.44819	3.1780312	0.7295	6.309346	26.78763
117	12.43031	3.1816112	0.7660	6.309947	26.83372
118	12.43462	3.2059345	0.7901	6.300563	27.05748
119	12.44114	3.2200052	0.7810	6.294710	27.18411
120	12.53505	3.2194805	0.7629	6.284932	27.11152
121	12.76118	3.2075805	0.7508	6.265310	26.83953
122	12.85671	3.1975326	0.7448	6.258833	26.67919
123	12.81698	3.1917468	0.7599	6.265113	26.65378
124	12.73808	3.1899274	0.7841	6.274129	26.69258
125	12.67294	3.2104640	0.8235	6.273601	26.92896
126	12.66391	3.2240933	0.8356	6.269617	27.06186
127	12.69902	3.2287470	0.8236	6.264227	27.07988
128	12.87626	3.2259998	0.7902	6.246560	26.92799
129	13.05065	3.2119920	0.7690	6.233255	26.67588
130	13.10179	3.2021383	0.7780	6.231390	26.54970
131	13.04421	3.2051316	0.7871	6.236371	26.61741
132	12.97021	3.2240277	0.8084	6.237405	26.84320
133	12.93084	3.2304671	0.8054	6.239232	26.93042
134	12.94467	3.2320712	0.8023	6.237210	26.93539
135	13.00871	3.2234722	0.8084	6.233568	26.81088
136	13.06124	3.2149320	0.8053	6.231101	26.69542
137	13.06337	3.2151189	0.8114	6.230812	26.69564
138	13.04986	3.2207656	0.8114	6.230220	26.75699
139	13.04573	3.2274455	0.8326	6.228279	26.82126
140	13.04475	3.2364226	0.8326	6.225189	26.90445
141	13.03375	3.2378469	0.8144	6.225832	26.92535
142	13.05990	3.2392086	0.7842	6.222617	26.91935
143	13.13006	3.2283368	0.7569	6.219150	26.77004
144	13.14707	3.2102411	0.7691	6.223775	26.59230
145	13.06008	3.2075525	0.7963	6.233844	26.62851
146	12.95194	3.2285883	0.8175	6.237692	26.89813
147	12.87765	3.2375050	0.8205	6.242290	27.03320
148	12.91805	3.2392726	0.8145	6.237423	27.02071
149	13.08504	3.2282125	0.8084	6.223896	26.80058
150	13.21080	3.2177844	0.8145	6.214451	26.61678
151	13.24136	3.2200591	0.8206	6.210462	26.61623
152	13.20756	3.2341976	0.8176	6.209002	26.76920
153	13.19254	3.2378453	0.7994	6.209279	26.81317
154	13.21520	3.2383698	0.7752	6.206736	26.80203
155	13.26455	3.2300329	0.7722	6.204539	26.69117
156	13.28774	3.2209439	0.7873	6.205319	26.59196
157	13.23592	3.2220543	0.8267	6.210327	26.63826
158	13.16794	3.2362089	0.8540	6.212418	26.81549
159	13.13988	3.2429826	0.8600	6.212945	26.89738
160	13.22033	3.2454012	0.8449	6.203726	26.86275
161	13.39800	3.2442176	0.8147	6.185728	26.72718
162	13.52289	3.2351809	0.7783	6.175966	26.55802
163	13.58149	3.2287003	0.7662	6.172160	26.45871
164	13.56964	3.2287316	0.7663	6.173373	26.46717
165	13.45787	3.2367930	0.7905	6.182125	26.61784
166	13.37559	3.2422987	0.7996	6.188717	26.72537
167	13.35583	3.2440618	0.8056	6.190146	26.75528
168	13.44741	3.2432294	0.8087	6.180965	26.68366
169	13.56149	3.2396033	0.8147	6.170450	26.57135
170	13.60619	3.2380596	0.8208	6.166378	26.52640
171	13.60681	3.2413650	0.8300	6.165172	26.55591
172	13.59309	3.2464478	0.8178	6.164827	26.61148
173	13.58655	3.2468231	0.7966	6.165370	26.61943
174	13.60378	3.2467291	0.7694	6.163630	26.60662
175	13.64142	3.2426397	0.7543	6.161170	26.54351
176	13.65991	3.2370345	0.7513	6.161200	26.48002
177	13.61583	3.2327447	0.7907	6.167220	26.47162
178	13.47448	3.2365430	0.8209	6.180495	26.60400
179	13.37252	3.2448681	0.8452	6.188137	26.75093
180	13.34124	3.2480953	0.8482	6.190246	26.80230
181	13.45233	3.2491825	0.8362	6.178384	26.73438
182	13.60223	3.2458911	0.8150	6.164079	26.60009
183	13.68027	3.2396645	0.7908	6.158200	26.48973
184	13.71501	3.2355848	0.7757	6.156032	26.42893
185	13.70813	3.2366342	0.7696	6.156378	26.44315
186	13.65267	3.2400022	0.7696	6.160922	26.51186
187	13.62417	3.2434400	0.7818	6.162668	26.56269
188	13.62188	3.2470979	0.7999	6.161641	26.59739
189	13.63004	3.2474105	0.8211	6.160694	26.59456
190	13.63270	3.2481860	0.8241	6.160154	26.59974
191	13.66343	3.2489613	0.8120	6.156729	26.58545
192	13.71904	3.2493986	0.8030	6.150872	26.55092
193	13.76722	3.2480282	0.7879	6.146404	26.50529
194	13.78391	3.2452389	0.7698	6.145649	26.46863
195	13.76803	3.2430384	0.7637	6.148031	26.45972
196	13.74042	3.2426387	0.7637	6.150999	26.47512
197	13.72319	3.2466027	0.7850	6.151407	26.52280
198	13.71402	3.2497990	0.8152	6.151250	26.55801
199	13.70182	3.2498930	0.8213	6.152469	26.56730
200	13.71904	3.2502369	0.8274	6.150585	26.55849
201	13.79099	3.2502987	0.8093	6.143192	26.50937
202	13.85973	3.2479334	0.7821	6.136969	26.44075
203	13.88089	3.2435623	0.7700	6.136296	26.38691
204	13.85899	3.2418624	0.7760	6.139116	26.38663
205	13.81658	3.2442132	0.7913	6.142654	26.43690
206	13.76964	3.2488976	0.8064	6.145858	26.51145
207	13.73819	3.2512878	0.8124	6.148261	26.55475
208	13.77125	3.2520697	0.8094	6.144606	26.53896
209	13.84698	3.2495161	0.7943	6.137733	26.46376
210	13.88967	3.2457005	0.7884	6.134671	26.40012
211	13.88375	3.2437186	0.7883	6.135950	26.38635
212	13.84381	3.2458260	0.7944	6.139317	26.43272
213	13.82839	3.2497353	0.7975	6.139559	26.47853
214	13.82311	3.2502045	0.8035	6.139939	26.48639
215	13.82205	3.2506362	0.8035	6.139899	26.49101
216	13.83983	3.2500792	0.8126	6.138272	26.47375
217	13.84549	3.2498602	0.8188	6.137768	26.46788
218	13.84816	3.2514744	0.8127	6.136944	26.48058
219	13.85320	3.2524693	0.8006	6.136089	26.48608
220	13.85376	3.2525944	0.7704	6.135989	26.48683
221	13.85245	3.2505108	0.7493	6.136833	26.46897
222	13.85382	3.2462011	0.7432	6.138164	26.42923
223	13.83797	3.2444630	0.7675	6.140380	26.42447
224	13.75177	3.2463523	0.7947	6.148562	26.50081
225	13.67581	3.2499871	0.8341	6.155105	26.58615
226	13.65230	3.2516955	0.8492	6.156930	26.61790
227	13.69426	3.2529404	0.8553	6.152196	26.60007
228	13.79894	3.2528141	0.8463	6.141519	26.52656
229	13.87193	3.2494908	0.8100	6.135192	26.44638
230	13.89982	3.2464445	0.7797	6.133380	26.39985
231	13.90225	3.2444311	0.7616	6.133817	26.38009
232	13.85905	3.2442002	0.7496	6.138312	26.40763
233	13.80745	3.2448322	0.7526	6.143377	26.44877
234	13.74966	3.2469777	0.7768	6.148563	26.50792
235	13.73057	3.2499865	0.8102	6.149489	26.54826
236	13.73280	3.2501117	0.8405	6.149217	26.54784
237	13.72914	3.2508249	0.8587	6.149348	26.55681
238	13.78429	3.2516941	0.8618	6.143402	26.52656
239	13.87037	3.2515367	0.8284	6.134654	26.46586
240	13.92935	3.2486770	0.7951	6.129606	26.39967
241	13.94937	3.2452371	0.7558	6.128732	26.35509
242	13.94344	3.2437492	0.7317	6.129841	26.34579
243	13.89104	3.2434684	0.7286	6.135290	26.37913
244	13.72344	3.2439703	0.7499	6.152285	26.49887
245	13.57822	3.2463228	0.7923	6.166401	26.62069
246	13.51359	3.2488691	0.8347	6.172176	26.68876
247	13.51291	3.2502704	0.8589	6.171760	26.70196
248	13.60415	3.2506386	0.8681	6.162242	26.64176
249	13.73962	3.2503869	0.8500	6.148424	26.54561
250	13.82920	3.2475647	0.8106	6.140218	26.45841
251	13.86614	3.2434375	0.7652	6.137847	26.39590
252	13.86459	3.2389190	0.7562	6.139547	26.35632
253	13.75289	3.2337922	0.7713	6.152755	26.38672
254	13.53041	3.2344752	0.8077	6.175434	26.54639
255	13.36902	3.2440929	0.8259	6.188770	26.74632
256	13.28321	3.2481272	0.8380	6.196244	26.84339
257	13.36326	3.2476009	0.8078	6.188140	26.78235
258	13.51944	3.2396662	0.7836	6.174766	26.60113
259	13.61632	3.2326198	0.7685	6.167212	26.47015
260	13.64908	3.2308590	0.7777	6.164443	26.43162
261	13.58920	3.2311718	0.7928	6.170509	26.47576
262	13.48088	3.2378422	0.8171	6.179381	26.61135
263	13.43788	3.2419293	0.8383	6.182403	26.67847
264	13.44957	3.2456114	0.8353	6.179913	26.70382
265	13.54293	3.2454603	0.8081	6.170334	26.63739
266	13.64803	3.2391712	0.7779	6.161685	26.50754
267	13.70014	3.2331746	0.7567	6.158389	26.41740
268	13.68999	3.2294730	0.7566	6.160707	26.39095
269	13.60687	3.2272212	0.7840	6.170052	26.42779
270	13.43333	3.2335146	0.8083	6.185806	26.60509
271	13.34933	3.2394805	0.8234	6.192423	26.71805
272	13.34669	3.2426991	0.8204	6.191570	26.74925
273	13.44981	3.2390483	0.8053	6.182173	26.64395
274	13.55600	3.2330200	0.7932	6.173296	26.51547
275	13.60508	3.2296861	0.7964	6.169385	26.45134
276	13.58439	3.2309221	0.7964	6.171093	26.47682
277	13.54447	3.2360488	0.8116	6.173437	26.55092
278	13.52049	3.2383978	0.8086	6.175098	26.58888
279	13.48384	3.2393542	0.8055	6.178550	26.62304
280	13.50256	3.2378732	0.8026	6.177131	26.59657
281	13.53226	3.2356742	0.8056	6.174827	26.55599
282	13.54996	3.2353992	0.8056	6.173096	26.54123
283	13.56347	3.2364484	0.7966	6.171339	26.54138
284	13.57439	3.2372853	0.7876	6.169922	26.54141
285	13.58531	3.2361733	0.7876	6.169181	26.52376
286	13.58927	3.2343497	0.7967	6.169404	26.50450
287	13.57723	3.2344435	0.8179	6.170613	26.51367
288	13.56464	3.2381162	0.8240	6.170641	26.55568
289	13.56581	3.2405343	0.8301	6.169683	26.57680
290	13.59526	3.2415839	0.8120	6.166286	26.56590
291	13.65477	3.2376842	0.7818	6.161504	26.48943
292	13.68695	3.2323069	0.7636	6.160044	26.41864
293	13.68052	3.2279941	0.7758	6.162192	26.38409
294	13.63189	3.2292864	0.8000	6.166758	26.42923
295	13.57285	3.2359236	0.8152	6.170553	26.53012
296	13.53201	3.2400972	0.8212	6.173319	26.59629
297	13.53658	3.2417408	0.8092	6.172279	26.60804
298	13.58673	3.2379348	0.7971	6.168425	26.53874
299	13.62361	3.2322514	0.7912	6.166588	26.46178
300	13.62102	3.2283317	0.8033	6.168209	26.42809
301	13.57143	3.2305852	0.8124	6.172547	26.48272
302	13.54015	3.2363549	0.8245	6.173777	26.55669
303	13.52160	3.2396662	0.8276	6.174544	26.59962
304	13.55650	3.2398220	0.8125	6.170889	26.57680
305	13.62497	3.2342244	0.8095	6.165767	26.47869
306	13.66591	3.2315393	0.8126	6.162476	26.42617
307	13.66968	3.2325256	0.8065	6.161747	26.43249
308	13.66282	3.2362350	0.8036	6.161176	26.47076
309	13.65756	3.2377779	0.7885	6.161186	26.48835
310	13.65651	3.2356167	0.7733	6.162039	26.46953
311	13.66412	3.2319388	0.7704	6.162522	26.43103
312	13.66678	3.2295669	0.7765	6.163066	26.40775
313	13.65552	3.2305219	0.7977	6.163897	26.42413
314	13.64475	3.2343179	0.8099	6.163697	26.46588
315	13.63610	3.2361728	0.8251	6.163949	26.48864
316	13.63758	3.2375907	0.8402	6.163307	26.50044
317	13.66127	3.2371594	0.8433	6.161018	26.48018
318	13.68435	3.2363846	0.8433	6.158910	26.45725
319	13.70151	3.2363220	0.8312	6.157167	26.44487
320	13.70968	3.2364156	0.8132	6.156294	26.44009
321	13.71309	3.2348105	0.7890	6.156495	26.42326
322	13.70962	3.2317823	0.7618	6.157893	26.39831
323	13.69426	3.2295978	0.7436	6.160224	26.38914
324	13.67259	3.2282376	0.7497	6.162924	26.39175
325	13.66164	3.2291925	0.7710	6.163724	26.40791
326	13.65613	3.2322198	0.7982	6.163248	26.43906
327	13.65082	3.2346862	0.8256	6.162946	26.46503
328	13.64896	3.2371596	0.8498	6.162284	26.48867
329	13.67773	3.2376528	0.8650	6.159155	26.47327
330	13.71179	3.2379648	0.8621	6.155546	26.45262
331	13.73949	3.2381144	0.8560	6.152649	26.43490
332	13.76151	3.2380829	0.8348	6.150399	26.41948
333	13.77578	3.2370645	0.7925	6.149283	26.40050
334	13.77733	3.2334173	0.7562	6.150372	26.36656
335	13.76126	3.2293786	0.7380	6.153407	26.34117
336	13.72982	3.2275007	0.7442	6.157285	26.34579
337	13.69977	3.2291608	0.7533	6.159807	26.38140
338	13.68819	3.2320946	0.7837	6.159990	26.41586
339	13.66678	3.2339180	0.8170	6.161567	26.44708
340	13.65589	3.2358291	0.8443	6.162030	26.47186
341	13.67550	3.2366346	0.8655	6.159734	26.46561
342	13.70479	3.2370028	0.8686	6.156596	26.44875
343	13.73770	3.2372836	0.8505	6.153118	26.42864
344	13.77131	3.2373457	0.8263	6.149645	26.40609
345	13.79869	3.2354591	0.7930	6.147482	26.37030
346	13.81049	3.2316314	0.7749	6.147580	26.32774
347	13.80385	3.2291910	0.7689	6.149097	26.31031
348	13.78242	3.2294408	0.7779	6.151212	26.32722
349	13.76232	3.2320626	0.7932	6.152379	26.36464
350	13.74464	3.2348726	0.8053	6.153232	26.40212
351	13.73912	3.2354597	0.8024	6.153597	26.41121
352	13.76300	3.2325558	0.8085	6.152140	26.36861
353	13.78242	3.2300587	0.8236	6.151001	26.33278
354	13.78205	3.2297154	0.8267	6.151157	26.32994
355	13.77827	3.2311698	0.8389	6.151048	26.34564
356	13.77653	3.2330489	0.8328	6.150582	26.36377
357	13.77082	3.2339419	0.8208	6.150862	26.37574
358	13.77280	3.2334798	0.8148	6.150817	26.37021
359	13.77827	3.2313196	0.7876	6.150996	26.34700
360	13.77665	3.2293473	0.7786	6.151837	26.33033
361	13.77107	3.2279308	0.7786	6.152896	26.32139
362	13.76517	3.2280868	0.7907	6.153449	26.32683
363	13.76219	3.2298405	0.7908	6.153154	26.34468
364	13.75860	3.2309515	0.8059	6.153143	26.35717
365	13.75394	3.2314447	0.8211	6.153452	26.36480
366	13.75860	3.2311700	0.8364	6.153068	26.35913
367	13.76188	3.2316319	0.8424	6.152572	26.36103
368	13.76288	3.2321251	0.8304	6.152301	26.36480
369	13.76405	3.2322187	0.8122	6.152148	26.36485
370	13.76573	3.2306144	0.7851	6.152525	26.34924
371	13.76511	3.2277436	0.7729	6.153573	26.32379
372	13.75915	3.2256474	0.7760	6.154904	26.30896
373	13.74917	3.2256164	0.7973	6.155942	26.31552
374	13.73794	3.2281433	0.8094	6.156230	26.34600
375	13.72567	3.2314138	0.8216	6.156369	26.38393
376	13.72238	3.2328060	0.8186	6.156229	26.39876
377	13.74042	3.2304586	0.8066	6.155180	26.36519
378	13.75704	3.2269139	0.8187	6.154687	26.32181
379	13.75611	3.2256475	0.8218	6.155217	26.31103
380	13.74656	3.2260531	0.8249	6.156061	26.32123
381	13.73639	3.2284241	0.8340	6.156293	26.34959
382	13.72778	3.2299345	0.8280	6.156661	26.36913
383	13.72053	3.2300906	0.8159	6.157353	26.37552
384	13.72313	3.2275631	0.8069	6.157953	26.35092
385	13.72387	3.2256229	0.8009	6.158543	26.33291
386	13.72034	3.2245126	0.7980	6.159288	26.32531
387	13.71495	3.2243255	0.8010	6.159908	26.32731
388	13.71154	3.2255606	0.7981	6.159834	26.34080
389	13.70931	3.2264215	0.8071	6.159768	26.35010
390	13.70256	3.2263592	0.8193	6.160485	26.35417
391	13.69500	3.2254984	0.8345	6.161559	26.35157
392	13.69011	3.2251866	0.8466	6.162171	26.35211
393	13.68739	3.2265465	0.8527	6.161983	26.36627
394	13.68943	3.2284246	0.8467	6.161126	26.38183
395	13.69494	3.2282997	0.8195	6.160602	26.37692
396	13.70435	3.2248184	0.7954	6.160829	26.33903
397	13.70937	3.2227290	0.7773	6.161030	26.31673
398	13.70720	3.2215568	0.7864	6.161657	26.30763
399	13.69859	3.2223612	0.8016	6.162268	26.32079
400	13.69073	3.2246688	0.8168	6.162285	26.34702
401	13.68163	3.2270395	0.8229	6.162406	26.37468
402	13.67866	3.2283311	0.8259	6.162268	26.38840
403	13.69011	3.2267586	0.8200	6.161629	26.36632
404	13.69829	3.2233715	0.8200	6.161952	26.33012
405	13.69736	3.2220744	0.8201	6.162494	26.31905
406	13.69141	3.2214073	0.8262	6.163337	26.31709
407	13.68064	3.2232220	0.8201	6.163823	26.34088
408	13.67569	3.2251306	0.8172	6.163676	26.36152
409	13.67117	3.2257419	0.8111	6.163931	26.37015
410	13.67476	3.2225111	0.8022	6.164673	26.33849
411	13.67730	3.2201481	0.8173	6.165226	26.31540
412	13.67173	3.2198988	0.8204	6.165886	26.31697
413	13.66282	3.2230039	0.8356	6.165736	26.35114
414	13.65051	3.2258045	0.8235	6.166040	26.38492
415	13.64983	3.2251308	0.7994	6.166342	26.37930
416	13.66028	3.2211582	0.7873	6.166633	26.33621
417	13.66430	3.2187332	0.7904	6.167054	26.31154
418	13.65335	3.2174432	0.8147	6.168629	26.30738
419	13.63041	3.2185154	0.8419	6.170629	26.33280
420	13.60137	3.2222687	0.8571	6.172332	26.38672
421	13.58328	3.2258988	0.8603	6.172946	26.43206
422	13.59668	3.2266972	0.8361	6.171286	26.43006
423	13.63499	3.2222995	0.7938	6.168850	26.36390
424	13.65811	3.2181785	0.7635	6.167883	26.31078
425	13.65793	3.2152311	0.7817	6.168918	26.28426
426	13.57723	3.2132073	0.8029	6.177963	26.32130
427	13.37406	3.2168915	0.8212	6.197759	26.49499
428	13.25464	3.2203333	0.8273	6.208982	26.60947
429	13.20097	3.2216244	0.8183	6.214123	26.65878
430	13.24938	3.2180582	0.8123	6.210331	26.59236
431	13.29319	3.2147489	0.8153	6.206927	26.53163
432	13.28670	3.2137024	0.8274	6.207971	26.52659
433	13.26320	3.2165873	0.8366	6.209407	26.56928
434	13.25965	3.2188870	0.8337	6.208968	26.59275
435	13.25561	3.2195042	0.8246	6.209172	26.60121
436	13.28946	3.2178147	0.8186	6.206239	26.56220
437	13.32401	3.2157891	0.8066	6.203352	26.51969
438	13.33878	3.2146238	0.7976	6.202222	26.49881
439	13.34344	3.2137018	0.7916	6.202060	26.48718
440	13.33045	3.2121697	0.7946	6.203950	26.48224
441	13.30612	3.2110676	0.8219	6.206872	26.48907
442	13.28487	3.2123570	0.8432	6.208635	26.51558
443	13.27636	3.2154531	0.8584	6.208435	26.54975
444	13.28248	3.2182760	0.8524	6.206805	26.57126
445	13.31776	3.2194225	0.8373	6.202729	26.55716
446	13.37995	3.2194717	0.8071	6.196244	26.51439
447	13.43622	3.2163736	0.7678	6.191481	26.44723
448	13.46827	3.2120188	0.7466	6.189670	26.38554
449	13.46661	3.2081894	0.7618	6.191176	26.35191
450	13.42448	3.2042440	0.8012	6.196931	26.34509
451	13.27875	3.2035736	0.8376	6.212360	26.43970
452	13.13415	3.2104903	0.8710	6.225041	26.60358
453	13.05546	3.2160038	0.8680	6.231327	26.70930
454	13.05747	3.2184342	0.8529	6.230253	26.73021
455	13.16415	3.2182149	0.8196	6.219170	26.65335
456	13.26081	3.2136092	0.7894	6.210703	26.54376
457	13.31261	3.2092930	0.7683	6.206817	26.46840
458	13.33173	3.2070579	0.7653	6.205607	26.43478
459	13.34026	3.2052530	0.7896	6.205351	26.41243
460	13.31231	3.2051848	0.8109	6.208291	26.43115
461	13.26167	3.2084655	0.8412	6.212423	26.49619
462	13.24240	3.2121395	0.8563	6.213142	26.54314
463	13.24705	3.2146871	0.8474	6.211760	26.56317
464	13.28738	3.2145932	0.8293	6.207588	26.53425
465	13.34436	3.2109738	0.8081	6.202920	26.46169
466	13.37872	3.2082837	0.7991	6.200283	26.41341
467	13.38394	3.2077296	0.8022	6.199934	26.40476
468	13.38161	3.2099958	0.8053	6.199384	26.42699
469	13.37805	3.2113098	0.8114	6.199296	26.44141
470	13.36583	3.2112787	0.8175	6.200578	26.44959
471	13.35921	3.2108865	0.8266	6.201405	26.45060
472	13.36062	3.2111916	0.8297	6.201151	26.45240
473	13.36270	3.2113411	0.8297	6.200882	26.45232
474	13.36344	3.2106747	0.8207	6.201038	26.44574
475	13.36203	3.2090434	0.8148	6.201756	26.43187
476	13.35608	3.2080038	0.8118	6.202739	26.42652
477	13.34970	3.2079168	0.8027	6.203434	26.43015
478	13.34804	3.2082218	0.8089	6.203500	26.43407
479	13.34860	3.2083401	0.8120	6.203401	26.43476
480	13.35007	3.2080039	0.8241	6.203366	26.43068
481	13.35093	3.2077300	0.8362	6.203372	26.42759
482	13.35123	3.2089564	0.8455	6.202911	26.43854
483	13.35178	3.2106686	0.8424	6.202254	26.45375
484	13.35436	3.2107931	0.8244	6.201942	26.45311
485	13.36933	3.2082838	0.8123	6.201261	26.41990
486	13.37989	3.2064164	0.8032	6.200815	26.39561
487	13.38326	3.2051592	0.8063	6.200903	26.38184
488	13.37983	3.2060927	0.8276	6.200935	26.39270
489	13.37743	3.2081593	0.8337	6.200461	26.41316
490	13.37485	3.2094106	0.8277	6.200292	26.42633
491	13.37891	3.2101204	0.8216	6.199622	26.42999
492	13.38683	3.2095039	0.8127	6.199013	26.41891
493	13.39032	3.2066590	0.8006	6.199643	26.39061
494	13.38873	3.2050720	0.8067	6.200364	26.37728
495	13.38155	3.2049165	0.8098	6.201167	26.38082
496	13.37443	3.2059559	0.8250	6.201545	26.39519
497	13.37087	3.2073314	0.8281	6.201435	26.41017
498	13.36547	3.2084955	0.8281	6.201590	26.42450
499	13.36559	3.2084644	0.8253	6.201588	26.42413
500	13.37504	3.2070575	0.8192	6.201096	26.40479
501	13.38020	3.2052215	0.8223	6.201201	26.38452
502	13.37903	3.2041823	0.8162	6.201686	26.37587
503	13.37713	3.2041201	0.8224	6.201906	26.37662
504	13.37590	3.2055576	0.8285	6.201531	26.39055
505	13.37578	3.2070575	0.8316	6.201019	26.40428
506	13.37369	3.2078854	0.8286	6.200947	26.41326
507	13.37835	3.2063230	0.8014	6.201007	26.39582
508	13.38247	3.2038152	0.7985	6.201456	26.37017
509	13.38130	3.2013703	0.8288	6.202432	26.34872
510	13.35565	3.1958863	0.8954	6.207027	26.31649
511	13.17404	3.1803253	1.0227	6.231527	26.29982
512	12.92866	3.1737352	1.1923	6.259760	26.40951
513	12.73102	3.1732847	1.3618	6.280901	26.54347
514	12.59092	3.1719225	1.5406	6.296330	26.62941
515	12.49387	3.1706592	1.7405	6.307170	26.68623
516	12.42804	3.1695693	1.9585	6.314627	26.72270
517	12.38423	3.1684918	2.1948	6.319727	26.74371
518	12.35426	3.1697252	2.4371	6.322495	26.77646
519	12.33404	3.1747090	2.6974	6.322834	26.83734
520	12.32122	3.1749510	2.9639	6.324126	26.84867
521	12.31228	3.1744056	3.2578	6.325292	26.84987
522	12.30471	3.1723538	3.5120	6.326867	26.83600
523	12.29899	3.1696952	3.7907	6.328468	26.81514
524	12.29398	3.1641636	4.0844	6.331055	26.76689
525	12.29136	3.1558762	4.3933	6.334406	26.69119
526	12.28737	3.1519429	4.7173	6.336295	26.65715
527	12.28284	3.1551837	5.0504	6.335590	26.69054
528	12.27689	3.1554375	5.3532	6.336143	26.69705
529	12.27141	3.1553015	5.6439	6.336788	26.69957
530	12.26802	3.1578568	5.9316	6.336213	26.72578
531	12.26742	3.1575846	6.2223	6.336382	26.72356
532	12.26766	3.1590018	6.5312	6.335836	26.73653
533	12.26808	3.1613724	6.8553	6.334918	26.75830
534	12.26784	3.1927299	7.1459	6.323343	27.05187
535	12.26808	3.2109871	7.4457	6.316567	27.22267
536	12.26998	3.2170610	7.7516	6.314122	27.27812
537	12.27397	3.2241620	8.0332	6.311074	27.34171
538	12.28243	3.2335914	8.3299	6.306692	27.42387
539	12.29303	3.2459699	8.6389	6.300997	27.53213
540	12.31120	3.2549792	8.9174	6.295749	27.60321
541	12.33237	3.2612663	9.2020	6.291194	27.64651
542	12.35140	3.2638225	9.4868	6.288245	27.65637
543	12.36465	3.2654769	9.7744	6.286241	27.66202
544	12.37295	3.2672759	10.0652	6.284707	27.67267
545	12.37772	3.2683542	10.3346	6.283810	27.67916
546	12.38411	3.2716026	10.6072	6.281946	27.70479
547	12.40198	3.2875423	10.8827	6.274217	27.84087
548	12.40036	3.3045509	11.1613	6.268149	28.00143
549	12.33845	3.3139068	11.4339	6.271202	28.13542
550	12.24094	3.3212796	11.7034	6.278709	28.27800
551	12.12410	3.3284064	11.9548	6.288331	28.43363
552	12.01432	3.3359624	12.2272	6.297054	28.58882
553	11.91259	3.3407361	12.4969	6.305973	28.71217
554	11.81401	3.3399342	12.7633	6.316672	28.78045
555	11.70151	3.3367054	13.0540	6.329794	28.83659
556	11.58432	3.3362139	13.3356	6.342413	28.92289
557	11.47374	3.3353936	13.5899	6.354490	29.00130
558	11.35407	3.3319455	13.8474	6.368587	29.06183
559	11.22778	3.3286883	14.1138	6.383371	29.12970
560	11.11068	3.3256026	14.3652	6.397155	29.19229
561	11.00287	3.3238430	14.6135	6.409462	29.26071
562	10.90535	3.3214591	14.8618	6.420940	29.31509
563	10.82892	3.3194856	15.1132	6.430001	29.35681
564	10.75408	3.3155452	15.3706	6.439696	29.37807
565	10.66969	3.3128231	15.6219	6.449969	29.41903
566	10.59123	3.3118598	15.8611	6.458912	29.47268
567	10.52197	3.3104366	16.0884	6.467055	29.51452
568	10.44212	3.3037550	16.3396	6.478507	29.51303
569	10.31228	3.2911867	16.6182	6.497906	29.49363
570	10.13365	3.2836105	16.8938	6.520770	29.56346
571	9.94130	3.2817285	17.1239	6.542929	29.70205
572	9.79314	3.2778314	17.3752	6.561102	29.78490
573	9.68643	3.2768975	17.6206	6.573450	29.86375
574	9.61107	3.2755177	17.8659	6.582497	29.91233
575	9.55602	3.2736424	18.1050	6.589488	29.93911
576	9.50631	3.2715415	18.3473	6.595986	29.95920
577	9.45173	3.2699492	18.5744	6.602826	29.98855
578	9.39399	3.2671347	18.8106	6.610561	30.00819
579	9.33263	3.2632998	19.0559	6.619160	30.02050
580	9.27110	3.2611139	19.2920	6.627087	30.04979
581	9.20780	3.2577201	19.5253	6.635755	30.06829
582	9.14361	3.2561304	19.7555	6.643759	30.10605
583	9.08550	3.2523693	19.9946	6.652033	30.11649
584	9.02670	3.2498546	20.2369	6.659858	30.14032
585	8.96396	3.2481789	20.4641	6.667783	30.17617
586	8.90289	3.2463784	20.6851	6.675585	30.20941
587	8.84677	3.2442094	20.9304	6.682997	30.23470
588	8.80110	3.2424158	21.1636	6.689052	30.25501
589	8.76959	3.2426662	21.3876	6.692576	30.28439
590	8.74359	3.2413353	21.6118	6.696169	30.29274
591	8.71230	3.2390423	21.8449	6.700805	30.29566
592	8.67843	3.2369686	22.0811	6.705647	30.30306
593	8.64426	3.2355512	22.3113	6.710237	30.31752
594	8.60796	3.2335408	22.5353	6.715345	30.32768
595	8.57062	3.2313499	22.7625	6.720662	30.33686
596	8.53384	3.2297150	22.9865	6.725670	30.35135
597	8.50142	3.2278682	23.2318	6.730274	30.35990
598	8.47150	3.2258659	23.4650	6.734663	30.36468
599	8.43536	3.2223611	23.6890	6.740460	30.35915
600	8.38231	3.2165520	23.9223	6.749286	30.34410
601	8.30512	3.2125657	24.1433	6.760135	30.36888
602	8.22337	3.2084319	24.3765	6.771619	30.39611
603	8.15499	3.2058371	24.6097	6.780856	30.42799
604	8.10215	3.2019863	24.8610	6.788858	30.43322
605	8.06213	3.2014642	25.1002	6.793829	30.46238
606	8.03382	3.2015268	25.3395	6.797150	30.48756
607	8.01192	3.2006750	25.5726	6.800137	30.49754
608	7.99552	3.1991204	25.7967	6.802801	30.49533
609	7.97236	3.1940915	26.0360	6.807876	30.46231
610	7.92061	3.1880101	26.2631	6.816844	30.44303
611	7.85031	3.1826966	26.4993	6.827688	30.44797
612	7.77276	3.1795452	26.7203	6.838416	30.48215
613	7.70287	3.1785783	26.9413	6.847230	30.53295
614	7.64334	3.1773942	27.1533	6.854920	30.57248
615	7.59586	3.1759808	27.3774	6.861286	30.59906
616	7.55723	3.1750697	27.6046	6.866360	30.62325
617	7.52959	3.1741586	27.8316	6.870119	30.63778
618	7.50833	3.1737063	28.0647	6.872895	30.65160
619	7.49029	3.1728945	28.2919	6.875457	30.65874
620	7.47825	3.1730124	28.5190	6.876855	30.67054
621	7.47204	3.1727894	28.7522	6.877713	30.67353
622	7.46773	3.1727399	28.9672	6.878259	30.67671
623	7.46306	3.1721388	29.1882	6.879114	30.67432
624	7.45801	3.1712030	29.4244	6.880172	30.66865
625	7.45349	3.1707197	29.6395	6.880951	30.66738
626	7.44829	3.1696911	29.8816	6.882073	30.66086
627	7.43915	3.1685822	30.1330	6.883709	30.65695
628	7.41295	3.1667054	30.3753	6.887771	30.65990
629	7.36700	3.1640861	30.6175	6.894582	30.67236
630	7.31681	3.1631517	30.8567	6.901109	30.70669
631	7.27682	3.1619201	31.0961	6.906551	30.72884
632	7.24461	3.1608063	31.3382	6.910999	30.74537
633	7.20778	3.1601259	31.5744	6.915804	30.77070
634	7.17124	3.1590618	31.8227	6.920765	30.79167
635	7.14136	3.1586414	32.0709	6.924609	30.81368
636	7.11821	3.1575588	32.3193	6.927957	30.82254
637	7.09540	3.1561732	32.5767	6.931415	30.82784
638	7.06988	3.1558766	32.8310	6.934675	30.84733
639	7.04855	3.1559944	33.0733	6.937225	30.86759
640	7.03040	3.1549183	33.3458	6.939970	30.87207
641	7.01501	3.1535022	33.6334	6.942547	30.87039
642	6.99656	3.1532180	33.8939	6.944945	30.88373
643	6.97070	3.1522474	34.1483	6.948588	30.89630
644	6.94262	3.1501147	34.4026	6.953075	30.89825
645	6.90968	3.1484400	34.6600	6.957937	30.90954
646	6.87584	3.1477235	34.9203	6.962445	30.93206
647	6.84457	3.1468896	35.1717	6.966701	30.95104
648	6.80933	3.1445483	35.4231	6.972191	30.95719
649	6.77542	3.1429365	35.6895	6.977166	30.97010
650	6.74732	3.1412878	35.9408	6.981449	30.97737
651	6.71521	3.1383431	36.1983	6.986874	30.97412
652	6.67560	3.1365720	36.4587	6.992651	30.99046
653	6.64056	3.1352333	36.7130	6.997655	31.00741
654	6.61172	3.1332962	36.9734	7.002195	31.01221
655	6.58851	3.1323033	37.2430	7.005572	31.02225
656	6.56779	3.1315079	37.4972	7.008544	31.03222
657	6.54748	3.1310333	37.7547	7.011306	31.04532
658	6.53130	3.1306758	37.9999	7.013499	31.05599
659	6.51912	3.1302566	38.2664	7.015226	31.06233
660	6.50639	3.1296031	38.5177	7.017141	31.06662
661	6.49437	3.1291285	38.7811	7.018878	31.07221
662	6.48580	3.1288450	39.0415	7.020091	31.07677
663	6.47667	3.1281793	39.3050	7.021567	31.07764
664	6.46944	3.1278527	39.5654	7.022636	31.08051
665	6.46190	3.1271993	39.8288	7.023908	31.08007
666	6.45308	3.1264597	40.0982	7.025384	31.07985
667	6.44026	3.1252642	40.3557	7.027587	31.07825
668	6.42673	3.1244324	40.6313	7.029698	31.08129
669	6.40726	3.1229229	40.9036	7.032892	31.08228
670	6.38196	3.1221038	41.1641	7.036467	31.09620
671	6.35975	3.1215558	41.4365	7.039522	31.11030
672	6.33960	3.1207244	41.7152	7.042466	31.11941
673	6.32074	3.1201641	41.9877	7.045113	31.13033
674	6.30433	3.1202198	42.2663	7.047142	31.14582
675	6.29028	3.1198382	42.5448	7.049099	31.15433
676	6.27930	3.1190069	42.8387	7.050902	31.15505
677	6.26307	3.1172890	43.1019	7.053814	31.15081
678	6.24480	3.1166366	43.3898	7.056441	31.16019
679	6.23072	3.1163721	43.6652	7.058347	31.17003
680	6.21838	3.1164154	43.9347	7.059878	31.18170
681	6.20910	3.1164587	44.2042	7.061025	31.19057
682	6.20135	3.1160156	44.4797	7.062229	31.19264
683	6.19447	3.1155355	44.7613	7.063344	31.19350
684	6.18744	3.1155726	45.0429	7.064214	31.20024
685	6.17745	3.1161638	45.3155	7.065171	31.21583
686	6.16660	3.1176356	45.5910	7.065786	31.24199
687	6.14975	3.1154871	45.8696	7.069007	31.23353
688	6.12018	3.1144471	46.1269	7.073262	31.24907
689	6.09140	3.1154878	46.3965	7.076353	31.28702
690	6.07254	3.1162884	46.6599	7.078319	31.31319
691	6.06233	3.1165226	46.9234	7.079489	31.32510
692	6.05334	3.1155131	47.1777	7.081146	31.32206
693	6.04212	3.1146330	47.4440	7.083018	31.32251
694	6.03029	3.1135622	47.7014	7.085066	31.32140
695	6.01704	3.1127931	47.9619	7.087138	31.32496
696	6.00309	3.1124487	48.2223	7.089081	31.33391
697	5.99076	3.1117597	48.4858	7.090997	31.33751
698	5.98219	3.1112861	48.7311	7.092329	31.34004
699	5.97560	3.1109540	48.9945	7.093338	31.34232
700	5.96957	3.1109049	49.2368	7.094130	31.34724
701	5.96409	3.1106343	49.4971	7.094967	31.34917
702	5.95832	3.1096009	49.7606	7.096237	31.34287
703	5.95036	3.1083954	50.0180	7.097872	31.33667
704	5.93861	3.1076268	50.2783	7.099762	31.33885
705	5.92296	3.1056469	50.5297	7.102773	31.33113
706	5.90124	3.1045344	50.7932	7.106105	31.33870
707	5.88181	3.1043810	51.0536	7.108651	31.35487
708	5.86568	3.1042644	51.3140	7.110762	31.36841
709	5.85279	3.1044429	51.5683	7.112309	31.38225
710	5.84591	3.1045598	51.8409	7.113125	31.38981
711	5.84475	3.1050579	52.0982	7.113019	31.39634
712	5.84834	3.1071487	52.3677	7.111482	31.41626
713	5.85916	3.1106363	52.6221	7.108302	31.44509
714	5.88647	3.1166739	52.8735	7.101715	31.48706
715	5.92063	3.1196110	53.1248	7.095884	31.48795
716	5.94271	3.1184777	53.3821	7.093691	31.45464
717	5.94605	3.1172092	53.6213	7.093932	31.43726
718	5.93952	3.1170431	53.8726	7.094848	31.44136
719	5.92711	3.1167908	54.1119	7.096550	31.44996
720	5.91405	3.1170004	54.3391	7.098095	31.46434
721	5.90311	3.1174501	54.5843	7.099247	31.47941
722	5.89573	3.1177396	54.8115	7.100035	31.48942
723	5.88900	3.1172964	55.0446	7.101120	31.49062
724	5.87933	3.1164407	55.2900	7.102791	31.48993
725	5.86654	3.1149819	55.5231	7.105172	31.48543
726	5.84268	3.1098992	55.7595	7.110842	31.45068
727	5.79984	3.1048813	56.0014	7.118894	31.43426
728	5.74949	3.1021709	56.2286	7.126713	31.45069
729	5.70493	3.1006720	56.4619	7.133172	31.47531
730	5.66501	3.0987616	56.6951	7.139267	31.49104
731	5.61989	3.0975150	56.9251	7.145684	31.51911
732	5.57778	3.0965819	57.1674	7.151559	31.54794
733	5.54524	3.0960234	57.4128	7.156019	31.57205
734	5.52166	3.0957781	57.6488	7.159171	31.59132
735	5.50551	3.0955818	57.8852	7.161347	31.60417
736	5.49464	3.0954039	58.1183	7.162839	31.61228
737	5.48652	3.0950847	58.3605	7.164054	31.61620
738	5.48095	3.0949068	58.5936	7.164867	31.61931
739	5.47669	3.0949069	58.8359	7.165418	31.62321
740	5.47138	3.0948517	59.0692	7.166133	31.62747
741	5.46272	3.0955826	59.3144	7.166860	31.64378
742	5.45395	3.0961847	59.5597	7.167668	31.65873
743	5.44639	3.0963199	59.8020	7.168571	31.66728
744	5.43783	3.0963508	60.0502	7.169657	31.67558
745	5.43037	3.0961851	60.2927	7.170707	31.68063
746	5.42517	3.0957062	60.5409	7.171636	31.68000
747	5.41996	3.0952642	60.8163	7.172545	31.67978
748	5.41496	3.0951292	61.0828	7.173265	31.68284
749	5.40775	3.0953504	61.3372	7.174077	31.69203
750	5.39810	3.0954120	61.5886	7.175289	31.70172
751	5.39050	3.0955657	61.8338	7.176188	31.71053
752	5.38530	3.0956150	62.0821	7.176834	31.71589
753	5.38065	3.0956581	62.3244	7.177414	31.72066
754	5.37530	3.0960021	62.5605	7.177922	31.72950
755	5.37150	3.0963523	62.7999	7.178228	31.73695
756	5.36865	3.0964322	63.0482	7.178557	31.74043
757	5.36580	3.0963832	63.2965	7.178954	31.74245
758	5.36245	3.0961745	63.5417	7.179501	31.74314
759	5.35976	3.0964325	63.7900	7.179716	31.74850
760	5.35831	3.0967643	64.0415	7.179730	31.75351
761	5.35711	3.0974707	64.2927	7.179512	31.76254
762	5.35576	3.0976121	64.5442	7.179615	31.76530
763	5.34926	3.0975877	64.7894	7.180468	31.77105
764	5.34157	3.0975878	65.0590	7.181462	31.77822
765	5.33488	3.0977354	65.3223	7.182248	31.78611
766	5.32744	3.0979137	65.5828	7.183114	31.79507
767	5.32045	3.0981780	65.8401	7.183877	31.80458
768	5.31356	3.0990075	66.1007	7.184323	31.82041
769	5.30557	3.0996466	66.3640	7.185012	31.83514
770	5.29689	3.1000892	66.6185	7.185896	31.84830
771	5.28856	3.1005625	66.8788	7.186718	31.86147
772	5.28152	3.1009744	67.1300	7.187406	31.87273
773	5.27624	3.1010298	67.3906	7.188062	31.87827
774	5.27145	3.1006244	67.6449	7.188901	31.87809
775	5.26422	3.0995308	67.9082	7.190425	31.87240
776	5.25555	3.0987630	68.1718	7.191959	31.87180
777	5.24727	3.0989720	68.4383	7.192918	31.88193
778	5.24159	3.0996173	68.7077	7.193307	31.89456
779	5.23955	3.1006558	68.9743	7.193017	31.90820
780	5.23965	3.1010615	69.2408	7.192792	31.91259
781	5.23451	3.0997097	69.5043	7.194186	31.90196
782	5.22086	3.0992000	69.7798	7.196224	31.90904
783	5.20134	3.0996488	70.0433	7.198501	31.93266
784	5.18263	3.1012098	70.3247	7.200075	31.96821
785	5.16969	3.1023409	70.5943	7.201136	31.99336
786	5.16138	3.1030356	70.8729	7.201837	32.00911
787	5.15800	3.1044250	71.1485	7.201527	32.02807
788	5.15750	3.1048309	71.4180	7.201378	32.03305
789	5.15576	3.1054273	71.6906	7.201286	32.04139
790	5.15248	3.1056058	71.9630	7.201618	32.04644
791	5.14786	3.1059195	72.2388	7.202050	32.05432
792	5.14184	3.1064915	72.5080	7.202521	32.06650
793	5.13573	3.1071374	72.7716	7.202965	32.07962
794	5.12951	3.1080047	73.0411	7.203301	32.09536
795	5.12385	3.1087060	73.3197	7.203657	32.10869
796	5.12032	3.1091736	73.5861	7.203864	32.11729
797	5.11932	3.1095674	73.8587	7.203785	32.12261
798	5.11848	3.1098874	74.1433	7.203727	32.12694
799	5.11634	3.1101213	74.4158	7.203882	32.13154
800	5.11426	3.1102690	74.6854	7.204077	32.13510
801	5.11222	3.1103737	74.9579	7.204288	32.13812
802	5.11157	3.1105030	75.2213	7.204308	32.14009
803	5.11227	3.1104784	75.4969	7.204238	32.13901
804	5.11217	3.1105647	75.7725	7.204210	32.13995
805	5.11103	3.1107986	76.0389	7.204237	32.14359
806	5.10854	3.1112478	76.3116	7.204319	32.15099
807	5.10467	3.1115002	76.5871	7.204688	32.15747
808	5.10079	3.1115680	76.8686	7.205156	32.16184
809	5.09766	3.1118389	77.1381	7.205418	32.16782
810	5.09533	3.1121220	77.3986	7.205571	32.17318
811	5.09290	3.1124852	77.6682	7.205694	32.17954
812	5.08937	3.1129038	77.9317	7.205927	32.18760
813	5.08565	3.1132178	78.1890	7.206241	32.19466
814	5.08212	3.1133718	78.4495	7.206618	32.19969
815	5.07944	3.1134950	78.7220	7.206902	32.20355
816	5.07755	3.1135628	78.9975	7.207115	32.20601
817	5.07567	3.1136429	79.2610	7.207320	32.20862
818	5.07338	3.1137599	79.5335	7.207557	32.21203
819	5.07194	3.1138770	79.7999	7.207685	32.21463
820	5.07120	3.1138093	80.0755	7.207824	32.21443
821	5.07065	3.1138217	80.3451	7.207894	32.21497
822	5.07006	3.1138772	80.6176	7.207947	32.21604
823	5.06837	3.1139696	80.8779	7.208120	32.21860
824	5.06643	3.1140251	81.1537	7.208346	32.22097
825	5.06559	3.1139698	81.4171	7.208491	32.22102
826	5.06499	3.1139699	81.6897	7.208574	32.22146
827	5.06440	3.1140254	81.9559	7.208626	32.22254
828	5.06331	3.1141732	82.2256	7.208693	32.22515
829	5.06232	3.1143456	82.4981	7.208734	32.22795
830	5.06147	3.1145304	82.7495	7.208748	32.23075
831	5.06063	3.1147090	83.0130	7.208765	32.23348
832	5.05924	3.1147953	83.2673	7.208903	32.23569
833	5.05795	3.1148754	83.5187	7.209032	32.23772
834	5.05710	3.1148878	83.7790	7.209140	32.23855
835	5.05656	3.1149125	84.0335	7.209203	32.23924
836	5.05636	3.1149679	84.2909	7.209204	32.23993
837	5.05606	3.1149742	84.5604	7.209246	32.24016
838	5.05567	3.1151528	84.8178	7.209206	32.24246
839	5.05443	3.1152514	85.0722	7.209318	32.24466
840	5.05259	3.1153869	85.3326	7.209487	32.24786
841	5.05130	3.1158610	85.5779	7.209401	32.25442
842	5.04922	3.1161012	85.8323	7.209544	32.25906
843	5.04743	3.1162183	86.0867	7.209716	32.26200
844	5.04599	3.1164277	86.3471	7.209794	32.26566
845	5.04421	3.1166925	86.6107	7.209886	32.27029
846	5.04207	3.1173145	86.8649	7.209828	32.27935
847	5.03964	3.1177272	87.1225	7.209922	32.28631
848	5.03706	3.1179982	87.3737	7.210113	32.29179
849	5.03523	3.1180969	87.6282	7.210301	32.29457
850	5.03409	3.1182940	87.8794	7.210347	32.29781
851	5.03270	3.1184419	88.1308	7.210451	32.30072
852	5.03131	3.1186760	88.3791	7.210508	32.30463
853	5.02957	3.1189717	88.6366	7.210577	32.30957
854	5.02774	3.1190950	88.8849	7.210752	32.31264
855	5.02625	3.1193291	89.1423	7.210822	32.31663
856	5.02402	3.1196926	89.3905	7.210917	32.32284
857	5.02164	3.1198344	89.6451	7.211152	32.32665
858	5.01911	3.1198961	89.8994	7.211450	32.32968
859	5.01723	3.1199762	90.1599	7.211655	32.33230
860	5.01574	3.1200133	90.4111	7.211832	32.33404
861	5.01415	3.1199518	90.6656	7.212076	32.33474
862	5.01311	3.1198964	90.9199	7.212246	32.33499
863	5.01173	3.1198472	91.1683	7.212457	32.33565
864	5.01054	3.1198350	91.4287	7.212623	32.33653
865	5.00885	3.1197735	91.6771	7.212879	32.33734
866	5.00657	3.1197243	91.9315	7.213206	32.33886
867	5.00444	3.1197183	92.1797	7.213489	32.34073
868	5.00251	3.1196568	92.4251	7.213778	32.34178
869	5.00038	3.1196569	92.6732	7.214058	32.34372
870	4.99854	3.1199403	92.9156	7.214145	32.34863
871	4.99820	3.1201621	93.1670	7.214075	32.35139
872	4.99839	3.1202484	93.4214	7.214008	32.35206
873	4.99879	3.1203532	93.6760	7.213906	32.35275
874	4.99839	3.1201007	93.9239	7.214101	32.35011
875	4.99601	3.1196882	94.1725	7.214638	32.34756
876	4.99170	3.1190662	94.4086	7.215538	32.34449
877	4.98566	3.1184998	94.6540	7.216632	32.34373
878	4.98041	3.1182967	94.9113	7.217425	32.34637
879	4.97645	3.1182968	95.1566	7.217942	32.35010
880	4.97377	3.1181614	95.4050	7.218366	32.35101
881	4.97100	3.1179398	95.6594	7.218851	32.35104
882	4.96803	3.1175828	95.9107	7.219435	32.34969
883	4.96516	3.1174413	96.1682	7.219888	32.35073
884	4.96313	3.1174660	96.4195	7.220143	32.35286
885	4.96184	3.1173491	96.6679	7.220378	32.35264
886	4.95996	3.1171891	96.9192	7.220714	32.35251
887	4.95882	3.1172015	97.1675	7.220860	32.35363
888	4.95738	3.1169306	97.4251	7.221200	32.35178
889	4.95515	3.1166106	97.6733	7.221668	32.35015
890	4.95253	3.1164137	97.9186	7.222120	32.35031
891	4.95045	3.1162229	98.1790	7.222499	32.35001
892	4.94783	3.1158659	98.4365	7.223038	32.34833
893	4.94525	3.1160384	98.6969	7.223282	32.35268
894	4.94298	3.1168451	98.9664	7.223141	32.36402
895	4.94263	3.1182368	99.2358	7.222431	32.38022
896	4.94451	3.1192899	99.5113	7.221619	32.39036
897	4.94714	3.1198690	99.7780	7.220971	32.39433
898	4.94951	3.1201647	100.0504	7.220509	32.39528
899	4.95124	3.1203126	100.3200	7.220211	32.39516
900	4.95243	3.1206022	100.5865	7.219906	32.39719
901	4.95317	3.1207316	100.8623	7.219747	32.39782
902	4.95412	3.1209041	101.1315	7.219537	32.39875
903	4.95520	3.1209781	101.4072	7.219363	32.39841
904	4.95570	3.1212308	101.6737	7.219168	32.40069
905	4.95664	3.1216190	101.9491	7.218841	32.40410
906	4.95718	3.1212617	102.2219	7.218973	32.39933
907	4.95506	3.1207937	102.4945	7.219509	32.39589
908	4.95129	3.1202825	102.7639	7.220280	32.39354
909	4.94644	3.1201040	103.0455	7.221009	32.39606
910	4.94233	3.1200733	103.3060	7.221562	32.39958
911	4.93966	3.1201966	103.5723	7.221846	32.40346
912	4.93813	3.1204924	103.7875	7.221887	32.40824
913	4.93674	3.1211023	103.9449	7.221735	32.41653
914	4.93600	3.1229876	104.0511	7.220802	32.43887
915	4.93610	3.1245590	104.1269	7.219931	32.45680
916	4.93546	3.1249720	104.1968	7.219790	32.46214
917	4.93951	3.1255267	104.2726	7.218966	32.46453
918	4.94352	3.1259828	104.3393	7.218202	32.46583
919	4.94511	3.1263711	104.4123	7.217787	32.46871
920	4.94605	3.1264328	104.4820	7.217634	32.46847
921	4.94624	3.1262479	104.5489	7.217711	32.46612
922	4.94783	3.1262787	104.6155	7.217492	32.46489
923	4.94912	3.1266671	104.6672	7.217116	32.46808
924	4.94976	3.1283501	104.7097	7.216114	32.48678
925	4.95124	3.1283316	104.7281	7.215933	32.48511
926	4.95728	3.1284487	104.7285	7.215092	32.48056
927	4.96996	3.1286027	104.7408	7.213378	32.46997
928	4.98323	3.1288184	104.7592	7.211554	32.45950
929	4.99458	3.1291945	104.7743	7.209891	32.45276
930	5.00275	3.1294040	104.7927	7.208727	32.44720
931	5.00875	3.1294657	104.8080	7.207923	32.44206
932	5.01485	3.1296013	104.8205	7.207067	32.43768
933	5.01995	3.1299712	104.8357	7.206210	32.43695
934	5.02328	3.1302672	104.8541	7.205622	32.43710
935	5.02536	3.1302610	104.8755	7.205359	32.43500
936	5.02709	3.1297615	104.8695	7.205408	32.42758
937	5.02933	3.1291325	104.8576	7.205463	32.41820
938	5.03364	3.1292249	104.8429	7.204859	32.41508
939	5.03959	3.1294468	104.8311	7.203973	32.41184
940	5.04044	3.1292557	104.8010	7.203968	32.40885
941	5.03830	3.1288672	104.7587	7.204453	32.40649
942	5.04098	3.1289843	104.7136	7.204044	32.40525
943	5.04073	3.1291940	104.6744	7.203961	32.40791
944	5.03731	3.1295208	104.6414	7.204222	32.41500
945	5.03528	3.1297613	104.6084	7.204351	32.41975
946	5.03399	3.1300450	104.5753	7.204361	32.42428
947	5.03300	3.1301745	104.5361	7.204417	32.42675
948	5.03384	3.1298785	104.4849	7.204469	32.42256
949	5.03825	3.1295207	104.4306	7.204096	32.41419
950	5.04123	3.1289410	104.3673	7.204027	32.40469
951	5.04406	3.1285710	104.2888	7.203864	32.39774
952	5.04817	3.1288361	104.1922	7.203189	32.39682
953	5.04946	3.1290765	104.0985	7.202890	32.39837
954	5.04872	3.1295082	104.0048	7.202749	32.40409
955	5.04723	3.1296993	103.9204	7.202834	32.40777
956	5.04525	3.1299398	103.8268	7.202956	32.41250
957	5.04316	3.1301988	103.7270	7.203080	32.41755
958	5.04272	3.1305318	103.6062	7.202953	32.42186
959	5.04346	3.1309203	103.4886	7.202644	32.42565
960	5.04520	3.1315186	103.3587	7.202093	32.43088
961	5.04778	3.1320552	103.2226	7.201467	32.43460
962	5.05031	3.1321106	103.0896	7.201109	32.43284
963	5.05160	3.1322894	102.9538	7.200843	32.43370
964	5.05378	3.1325546	102.8118	7.200415	32.43469
965	5.05671	3.1324620	102.6787	7.200087	32.43085
966	5.05467	3.1318143	102.5428	7.200697	32.42547
967	5.04287	3.1317527	102.4130	7.202242	32.43631
968	5.03205	3.1317219	102.2800	7.203643	32.44654
969	5.02397	3.1317096	102.1439	7.204684	32.45433
970	5.01817	3.1319626	102.0111	7.205287	32.46295
971	5.01579	3.1318700	101.8661	7.205640	32.46428
972	5.01346	3.1316911	101.7362	7.206033	32.46456
973	5.00890	3.1316109	101.5820	7.206659	32.46816
974	5.00484	3.1313951	101.4371	7.207295	32.46971
975	5.00033	3.1310065	101.2859	7.208082	32.46972
976	4.99611	3.1305131	101.1288	7.208888	32.46824
977	4.99180	3.1298162	100.9718	7.209818	32.46451
978	4.98749	3.1288665	100.8205	7.210886	32.45788
979	4.98328	3.1282746	100.6693	7.211747	32.45526
980	4.98031	3.1281883	100.5152	7.212173	32.45724
981	4.97873	3.1281204	100.3491	7.212409	32.45809
982	4.97729	3.1276456	100.1890	7.212849	32.45412
983	4.97556	3.1273189	100.0196	7.213247	32.45214
984	4.97392	3.1267147	99.8504	7.213783	32.44687
985	4.97204	3.1260427	99.6933	7.214388	32.44107
986	4.97125	3.1259256	99.5241	7.214550	32.44058
987	4.97184	3.1257098	99.3517	7.214587	32.43761
988	4.97278	3.1253276	99.1825	7.214671	32.43239
989	4.97303	3.1250317	99.0070	7.214796	32.42883
990	4.97303	3.1247666	98.8410	7.214937	32.42587
991	4.97323	3.1247357	98.6777	7.214924	32.42541
992	4.97427	3.1247665	98.4962	7.214769	32.42484
993	4.97432	3.1244953	98.3239	7.214907	32.42176
994	4.97362	3.1242980	98.1547	7.215100	32.42026
995	4.97328	3.1244089	97.9854	7.215080	32.42195
996	4.97308	3.1243780	97.8163	7.215118	32.42188
997	4.97184	3.1242917	97.6379	7.215320	32.42218
998	4.97060	3.1241438	97.4535	7.215556	32.42178
999	4.96936	3.1236076	97.2753	7.216004	32.41691
1000	4.96714	3.1232194	97.0939	7.216499	32.41471
1001	4.96496	3.1230160	96.9214	7.216886	32.41458
1002	4.96362	3.1229851	96.7493	7.217071	32.41562
1003	4.96313	3.1231330	96.5617	7.217050	32.41789
1004	4.96204	3.1224490	96.3745	7.217559	32.41119
1005	4.96020	3.1216665	96.1961	7.218218	32.40407
1006	4.95832	3.1214077	96.0207	7.218598	32.40301
1007	4.95709	3.1212598	95.8364	7.218834	32.40261
1008	4.95654	3.1211366	95.6579	7.218967	32.40181
1009	4.95619	3.1207854	95.4705	7.219199	32.39821
1010	4.95560	3.1204281	95.2862	7.219467	32.39477
1011	4.95520	3.1203110	95.1108	7.219578	32.39390
1012	4.95540	3.1206004	94.9173	7.219389	32.39713
1013	4.95689	3.1223315	94.7268	7.218247	32.41567
1014	4.96085	3.1225039	94.5363	7.217638	32.41390
1015	4.96436	3.1226086	94.3519	7.217124	32.41177
1016	4.96550	3.1236622	94.1615	7.216397	32.42286
1017	4.96649	3.1245249	93.9802	7.215794	32.43190
1018	4.96709	3.1252705	93.7897	7.215306	32.43999
1019	4.96724	3.1262444	93.6053	7.214750	32.45112
1020	4.96669	3.1263984	93.4149	7.214732	32.45352
1021	4.96570	3.1271689	93.2276	7.214434	32.46343
1022	4.96664	3.1280628	93.0341	7.213820	32.47288
1023	4.97204	3.1284758	92.8374	7.212896	32.47247
1024	4.97655	3.1288642	92.6560	7.212100	32.47263
1025	4.98081	3.1296349	92.4837	7.211128	32.47741
1026	4.98680	3.1304797	92.2810	7.209892	32.48138
1027	4.99532	3.1307694	92.0908	7.208635	32.47649
1028	5.00553	3.1309172	91.9002	7.207238	32.46834
1029	5.01450	3.1312748	91.7190	7.205887	32.46380
1030	5.02065	3.1316386	91.5224	7.204896	32.46208
1031	5.02700	3.1320209	91.3289	7.203868	32.46039
1032	5.03518	3.1322552	91.1355	7.202687	32.45521
1033	5.04520	3.1321687	90.9298	7.201444	32.44457
1034	5.05661	3.1320513	90.7455	7.200040	32.43222
1035	5.06465	3.1318661	90.5549	7.199105	32.42237
1036	5.06976	3.1313047	90.3614	7.198750	32.41107
1037	5.07279	3.1308235	90.1588	7.198618	32.40272
1038	5.07542	3.1304719	89.9685	7.198467	32.39623
1039	5.07532	3.1302930	89.7720	7.198572	32.39438
1040	5.07214	3.1299661	89.5843	7.199153	32.39381
1041	5.06748	3.1294727	89.3787	7.200014	32.39279
1042	5.06614	3.1292815	89.1763	7.200285	32.39200
1043	5.06385	3.1289793	88.9707	7.200737	32.39086
1044	5.05993	3.1288622	88.7804	7.201299	32.39342
1045	5.05641	3.1287203	88.5838	7.201824	32.39531
1046	5.05229	3.1283257	88.3871	7.202562	32.39489
1047	5.05135	3.1282393	88.1906	7.202726	32.39491
1048	5.05046	3.1280913	87.9912	7.202916	32.39418
1049	5.04991	3.1279988	87.7946	7.203032	32.39375
1050	5.05031	3.1281467	87.6070	7.202896	32.39515
1051	5.04748	3.1278815	87.4074	7.203398	32.39496
1052	5.04564	3.1278075	87.1990	7.203669	32.39600
1053	5.04693	3.1278506	86.9963	7.203475	32.39534
1054	5.04500	3.1278814	86.7967	7.203702	32.39767
1055	5.04341	3.1279985	86.6093	7.203838	32.40065
1056	5.04073	3.1277148	86.4099	7.204331	32.40010
1057	5.03964	3.1275545	86.2044	7.204554	32.39943
1058	5.04252	3.1274927	85.9985	7.204213	32.39603
1059	5.04346	3.1275235	85.7959	7.204071	32.39557
1060	5.04158	3.1271967	85.5754	7.204485	32.39376
1061	5.04242	3.1273754	85.3666	7.204275	32.39510
1062	5.04158	3.1274617	85.1639	7.204331	32.39701
1063	5.04068	3.1275541	84.9553	7.204391	32.39904
1064	5.04247	3.1276403	84.7619	7.204110	32.39839
1065	5.04540	3.1279978	84.5653	7.203535	32.39974
1066	5.04788	3.1275847	84.3719	7.203437	32.39269
1067	5.04986	3.1272763	84.1541	7.203344	32.38734
1068	5.05095	3.1273441	83.9486	7.203162	32.38716
1069	5.05204	3.1278495	83.7520	7.202743	32.39199
1070	5.05398	3.1278063	83.5555	7.202513	32.38972
1071	5.05567	3.1275535	83.3466	7.202429	32.38528
1072	5.05745	3.1275842	83.1471	7.202179	32.38400
1073	5.05899	3.1276396	82.9447	7.201946	32.38325
1074	5.06018	3.1277444	82.7451	7.201732	32.38339
1075	5.06078	3.1277320	82.5514	7.201657	32.38277
1076	5.06142	3.1276086	82.3520	7.201637	32.38083
1077	5.06117	3.1274606	82.1373	7.201744	32.37948
1078	5.06043	3.1274050	81.9377	7.201865	32.37966
1079	5.05998	3.1274050	81.7381	7.201918	32.38020
1080	5.06048	3.1274604	81.5416	7.201819	32.38045
1081	5.06058	3.1273987	81.3359	7.201835	32.37975
1082	5.05864	3.1273123	81.1273	7.202126	32.38074
1083	5.05581	3.1273739	80.9217	7.202450	32.38430
1084	5.05447	3.1274355	80.7161	7.202584	32.38641
1085	5.05388	3.1274601	80.5165	7.202642	32.38737
1086	5.05249	3.1273121	80.3169	7.202896	32.38712
1087	5.05075	3.1271950	80.0932	7.203177	32.38757
1088	5.05140	3.1271764	79.8936	7.203100	32.38684
1089	5.05219	3.1272256	79.6970	7.202967	32.38673
1090	5.04931	3.1271948	79.5034	7.203348	32.38927
1091	5.04723	3.1268372	79.2889	7.203805	32.38730
1092	5.04946	3.1267385	79.0802	7.203567	32.38410
1093	5.05189	3.1267754	78.8683	7.203230	32.38227
1094	5.04951	3.1267199	78.6657	7.203561	32.38405
1095	5.04569	3.1264486	78.4631	7.204194	32.38475
1096	5.04296	3.1263314	78.2545	7.204603	32.38616
1097	5.04361	3.1263622	78.0428	7.204499	32.38599
1098	5.04227	3.1263621	77.8403	7.204666	32.38739
1099	5.04044	3.1263929	77.6406	7.204880	32.38963
1100	5.03910	3.1261217	77.4351	7.205195	32.38792
1101	5.03825	3.1260045	77.2323	7.205362	32.38750
1102	5.04093	3.1259736	77.0177	7.205030	32.38465
1103	5.04361	3.1259242	76.8151	7.204708	32.38159
1104	5.04247	3.1258563	76.6124	7.204886	32.38202
1105	5.03994	3.1256775	76.4069	7.205304	32.38253
1106	5.03890	3.1254494	76.1801	7.205556	32.38104
1107	5.03736	3.1253507	75.9503	7.205802	32.38151
1108	5.03478	3.1257945	75.7354	7.205887	32.38922
1109	5.03314	3.1256157	75.5450	7.206190	32.38885
1110	5.03503	3.1253567	75.3334	7.206083	32.38416
1111	5.03905	3.1251409	75.1276	7.205680	32.37788
1112	5.04029	3.1250854	74.9099	7.205546	32.37615
1113	5.03929	3.1250730	74.7074	7.205675	32.37707
1114	5.03731	3.1250545	74.4986	7.205935	32.37889
1115	5.03523	3.1250236	74.2838	7.206214	32.38067
1116	5.03493	3.1250235	74.0784	7.206248	32.38106
1117	5.03622	3.1249803	73.8694	7.206101	32.37942
1118	5.03835	3.1250542	73.6611	7.205781	32.37830
1119	5.04053	3.1251096	73.4646	7.205466	32.37691
1120	5.04232	3.1250540	73.2708	7.205262	32.37464
1121	5.04475	3.1249800	73.0592	7.204986	32.37154
1122	5.04773	3.1250231	72.8505	7.204575	32.36924
1123	5.05006	3.1250230	72.6418	7.204271	32.36708
1124	5.05189	3.1249797	72.4361	7.204053	32.36491
1125	5.05368	3.1249920	72.2245	7.203812	32.36342
1126	5.05601	3.1249919	72.0098	7.203508	32.36127
1127	5.05810	3.1249610	71.7949	7.203252	32.35900
1128	5.05998	3.1248870	71.5863	7.203045	32.35642
1129	5.06167	3.1249054	71.3866	7.202814	32.35510
1130	5.06296	3.1247820	71.1901	7.202710	32.35253
1131	5.06445	3.1246957	70.9874	7.202561	32.35020
1132	5.06609	3.1245785	70.7729	7.202410	32.34738
1133	5.06708	3.1244305	70.5642	7.202358	32.34482
1134	5.06723	3.1241038	70.3675	7.202511	32.34103
1135	5.06728	3.1239127	70.1559	7.202604	32.33890
1136	5.06743	3.1238634	69.9441	7.202606	32.33830
1137	5.06802	3.1237462	69.7263	7.202588	32.33649
1138	5.06877	3.1235366	69.5206	7.202602	32.33347
1139	5.06976	3.1232100	69.3180	7.202647	32.32886
1140	5.07135	3.1232099	69.0883	7.202438	32.32744
1141	5.07323	3.1233577	68.8886	7.202110	32.32740
1142	5.07448	3.1233145	68.6829	7.201970	32.32581
1143	5.07661	3.1231480	68.4772	7.201781	32.32194
1144	5.07919	3.1229446	68.2745	7.201555	32.31721
1145	5.08192	3.1228151	68.0599	7.201270	32.31319
1146	5.08465	3.1227349	67.8483	7.200958	32.30973
1147	5.08709	3.1225253	67.6334	7.200754	32.30508
1148	5.08882	3.1224698	67.4429	7.200557	32.30286
1149	5.08952	3.1219091	67.2312	7.200767	32.29587
1150	5.09011	3.1217550	67.0254	7.200769	32.29363
1151	5.09170	3.1217549	66.8107	7.200560	32.29220
1152	5.09339	3.1218780	66.6020	7.200271	32.29208
1153	5.09434	3.1218718	66.3844	7.200148	32.29120
1154	5.09583	3.1211633	66.1635	7.200336	32.28176
1155	5.09910	3.1213110	65.9488	7.199830	32.28039
1156	5.10124	3.1206826	65.7338	7.199892	32.27124
1157	5.10159	3.1204176	65.5193	7.199986	32.26798
1158	5.10198	3.1204792	65.3137	7.199896	32.26840
1159	5.10263	3.1204052	65.1048	7.199849	32.26703
1160	5.10352	3.1200663	64.8932	7.199913	32.26240
1161	5.10536	3.1199184	64.6933	7.199752	32.25903
1162	5.10710	3.1197089	64.4788	7.199637	32.25506
1163	5.10829	3.1195549	64.2732	7.199563	32.25224
1164	5.10904	3.1192037	64.0765	7.199653	32.24761
1165	5.10983	3.1191174	63.8617	7.199593	32.24596
1166	5.11142	3.1190250	63.6501	7.199434	32.24347
1167	5.11291	3.1189633	63.4444	7.199271	32.24143
1168	5.11431	3.1188154	63.2266	7.199167	32.23850
1169	5.11510	3.1184335	63.0300	7.199267	32.23346
1170	5.11594	3.1180763	62.8092	7.199347	32.22867
1171	5.11704	3.1178976	62.5973	7.199299	32.22568
1172	5.11818	3.1176943	62.3796	7.199257	32.22236
1173	5.11977	3.1173679	62.1710	7.199225	32.21719
1174	5.12161	3.1170415	61.9652	7.199161	32.21179
1175	5.12260	3.1168321	61.7536	7.199141	32.20854
1176	5.12300	3.1166165	61.5448	7.199202	32.20579
1177	5.12370	3.1163578	61.3333	7.199248	32.20227
1178	5.12449	3.1160315	61.1275	7.199318	32.19787
1179	5.12564	3.1154281	60.9218	7.199493	32.18997
1180	5.12703	3.1152064	60.7040	7.199429	32.18621
1181	5.12872	3.1150832	60.5014	7.199274	32.18327
1182	5.13021	3.1145537	60.2865	7.199364	32.17589
1183	5.13215	3.1140859	60.0748	7.199363	32.16878
1184	5.13389	3.1137842	59.8752	7.199298	32.16375
1185	5.13513	3.1135748	59.6665	7.199247	32.16026
1186	5.13592	3.1129286	59.4517	7.199490	32.15222
1187	5.13747	3.1127500	59.2400	7.199383	32.14880
1188	5.13945	3.1126884	59.0372	7.199156	32.14628
1189	5.14035	3.1123068	58.8407	7.199243	32.14116
1190	5.14090	3.1114452	58.6231	7.199634	32.13089
1191	5.14229	3.1113898	58.4112	7.199480	32.12903
1192	5.14467	3.1114635	58.1965	7.199129	32.12768
1193	5.14731	3.1112973	57.9879	7.198875	32.12335
1194	5.14945	3.1112111	57.7820	7.198642	32.12041
1195	5.15084	3.1105281	57.5733	7.198828	32.11137
1196	5.15218	3.1101465	57.3556	7.198856	32.10583
1197	5.15447	3.1099373	57.1437	7.198671	32.10135
1198	5.15711	3.1099618	56.9260	7.198313	32.09920
1199	5.15920	3.1095249	56.7202	7.198276	32.09231
1200	5.16074	3.1092911	56.4993	7.198199	32.08827
1201	5.16332	3.1087559	56.2817	7.198151	32.07978
1202	5.16671	3.1090941	56.0639	7.197528	32.08050
1203	5.16929	3.1084912	55.8581	7.197517	32.07123
1204	5.17153	3.1077530	55.6433	7.197623	32.06077
1205	5.17442	3.1075623	55.4316	7.197350	32.05592
1206	5.17710	3.1073408	55.2168	7.197119	32.05092
1207	5.17994	3.1069286	54.9989	7.196972	32.04361
1208	5.18283	3.1069409	54.7872	7.196589	32.04109
1209	5.18571	3.1067809	54.5757	7.196300	32.03660
1210	5.18865	3.1063073	54.3671	7.196173	32.02848
1211	5.19238	3.1060059	54.1520	7.195851	32.02157
1212	5.19607	3.1058336	53.9432	7.195465	32.01618
1213	5.19915	3.1059503	53.7284	7.195001	32.01466
1214	5.20159	3.1050403	53.5167	7.195173	32.00205
1215	5.20453	3.1046221	53.3047	7.195016	31.99458
1216	5.20841	3.1041793	53.0870	7.194751	31.98592
1217	5.21195	3.1043575	52.8665	7.194195	31.98468
1218	5.21504	3.1040623	52.6606	7.193952	31.97846
1219	5.21822	3.1033860	52.4458	7.193902	31.96781
1220	5.22221	3.1028942	52.2310	7.193650	31.95851
1221	5.22634	3.1025007	52.0163	7.193325	31.95018
1222	5.23003	3.1025313	51.7953	7.192830	31.94711
1223	5.23297	3.1025804	51.5897	7.192421	31.94497
1224	5.23521	3.1018551	51.3717	7.192518	31.93467
1225	5.23780	3.1018550	51.1572	7.192180	31.93230
1226	5.24044	3.1012465	50.9424	7.192163	31.92296
1227	5.24338	3.1014431	50.7305	7.191675	31.92249
1228	5.24617	3.1009390	50.5338	7.191583	31.91419
1229	5.24832	3.1001278	50.3130	7.191739	31.90302
1230	5.25126	3.1001708	50.0862	7.191332	31.90081
1231	5.25490	3.0999064	49.8742	7.191002	31.89444
1232	5.25923	3.1001275	49.6536	7.190320	31.89293
1233	5.26272	3.1001459	49.4418	7.189857	31.88992
1234	5.26517	3.0991136	49.2238	7.190093	31.87595
1235	5.26796	3.0988800	49.0151	7.189855	31.87073
1236	5.27215	3.0985850	48.7913	7.189469	31.86350
1237	5.27694	3.0988183	48.5765	7.188724	31.86170
1238	5.28147	3.0987875	48.3769	7.188152	31.85713
1239	5.28457	3.0982038	48.1529	7.188063	31.84766
1240	5.28836	3.0982283	47.9383	7.187558	31.84443
1241	5.29240	3.0984063	47.7264	7.186938	31.84272
1242	5.29629	3.0979946	47.5055	7.186654	31.83444
1243	5.29948	3.0974233	47.2879	7.186545	31.82502
1244	5.30308	3.0972327	47.0637	7.186180	31.81955
1245	5.30767	3.0971098	46.8519	7.185652	31.81389
1246	5.31156	3.0972325	46.6403	7.185081	31.81169
1247	5.31531	3.0971710	46.4193	7.184627	31.80755
1248	5.32010	3.0967287	46.2045	7.184244	31.79808
1249	5.32594	3.0971093	45.9837	7.183284	31.79696
1250	5.33028	3.0962309	45.7629	7.183192	31.78297
1251	5.33408	3.0962308	45.5420	7.182700	31.77948
1252	5.33912	3.0969555	45.3243	7.181659	31.78303
1253	5.34397	3.0961692	45.1125	7.181453	31.76961
1254	5.34871	3.0963165	44.9034	7.180760	31.76688
1255	5.35566	3.0961137	44.6828	7.179971	31.75811
1256	5.36555	3.0963776	44.4677	7.178555	31.75183
1257	5.37580	3.0968626	44.2532	7.176976	31.74773
1258	5.38500	3.0969915	44.0383	7.175722	31.74059
1259	5.39480	3.0970527	43.8235	7.174427	31.73211
1260	5.40530	3.0972000	43.5936	7.172996	31.72396
1261	5.41546	3.0969050	43.3817	7.171847	31.71111
1262	5.42507	3.0978753	43.1671	7.170093	31.71313
1263	5.42992	3.0976356	42.9553	7.169594	31.70593
1264	5.43382	3.0967879	42.7433	7.169541	31.69274
1265	5.44233	3.0972546	42.5255	7.168197	31.69010
1266	5.45485	3.0976659	42.3047	7.166369	31.68304
1267	5.46692	3.0987838	42.0868	7.164224	31.68440
1268	5.47689	3.0991952	41.8721	7.162724	31.67975
1269	5.48451	3.0985992	41.6540	7.162061	31.66593
1270	5.49303	3.0983471	41.4213	7.161100	31.65516
1271	5.50195	3.0983470	41.2095	7.159954	31.64686
1272	5.50963	3.0985987	40.9947	7.158834	31.64258
1273	5.51815	3.0983160	40.7858	7.157889	31.63146
1274	5.52778	3.0986660	40.5708	7.156468	31.62645
1275	5.53631	3.0991573	40.3532	7.155112	31.62408
1276	5.54399	3.0994644	40.1415	7.153964	31.62042
1277	5.55242	3.0999619	39.9205	7.152618	31.61822
1278	5.56261	3.0994948	39.7026	7.151559	31.60347
1279	5.56979	3.0989294	39.4758	7.150936	31.59046
1280	5.57627	3.0985668	39.2580	7.150296	31.58039
1281	5.58340	3.0989046	39.0370	7.149201	31.57761
1282	5.59139	3.0991932	38.8220	7.148025	31.57347
1283	5.60079	3.0986585	38.6103	7.147103	31.55873
1284	5.60616	3.0983697	38.3833	7.146564	31.55055
1285	5.61144	3.0987566	38.1654	7.145682	31.55006
1286	5.62099	3.0992172	37.9477	7.144215	31.54640
1287	5.63351	3.0990757	37.7298	7.142688	31.53318
1288	5.64206	3.0991923	37.5180	7.141532	31.52659
1289	5.64739	3.0989648	37.3003	7.140967	31.51914
1290	5.65509	3.0995484	37.0885	7.139674	31.51860
1291	5.66405	3.0994622	36.8766	7.138573	31.50936
1292	5.67381	3.0996218	36.6526	7.137240	31.50213
1293	5.68016	3.1003406	36.4257	7.136049	31.50438
1294	5.68564	3.0996645	36.1746	7.135700	31.49178
1295	5.69451	3.1004570	35.9628	7.134151	31.49250
1296	5.70141	3.0996028	35.7417	7.133716	31.47656
1297	5.69330	3.0985154	35.5208	7.135315	31.47203
1298	5.69365	3.0980976	35.2938	7.135484	31.46711
1299	5.70765	3.0980728	35.0791	7.133709	31.45387
1300	5.72121	3.0987791	34.8670	7.131608	31.44925
1301	5.72957	3.0989018	34.6525	7.130475	31.44293
1302	5.73794	3.0989876	34.4315	7.129360	31.43620
1303	5.74702	3.0991042	34.2196	7.128140	31.42915
1304	5.75493	3.0995526	34.0080	7.126893	31.42691
1305	5.76280	3.0993374	33.7870	7.126001	31.41727
1306	5.77254	3.0992144	33.5629	7.124822	31.40693
1307	5.78465	3.0994845	33.3390	7.123137	31.39880
1308	5.79646	3.0997239	33.1093	7.121506	31.39061
1309	5.80863	3.1001170	32.8942	7.119751	31.38380
1310	5.82136	3.1000431	32.6765	7.118168	31.37125
1311	5.83121	3.0997480	32.4643	7.117067	31.35890
1312	5.83884	3.1001779	32.2496	7.115870	31.35673
1313	5.84536	3.1002208	32.0288	7.115015	31.35126
1314	5.85344	3.1007246	31.8168	7.113722	31.34949
1315	5.86345	3.1014188	31.6050	7.112087	31.34807
1316	5.87311	3.1015477	31.3964	7.110791	31.34065
1317	5.88348	3.1014000	31.1754	7.109548	31.32950
1318	5.89745	3.1019161	30.9667	7.107506	31.32242
1319	5.90939	3.1023400	30.7517	7.105769	31.31620
1320	5.91936	3.1026963	30.5309	7.104316	31.31105
1321	5.93010	3.1021614	30.3161	7.103230	31.29525
1322	5.94119	3.1019277	30.0953	7.101942	31.28249
1323	5.95066	3.1023700	29.8712	7.100510	31.27877
1324	5.95948	3.1027878	29.6623	7.099173	31.27538
1325	5.96957	3.1030151	29.4353	7.097775	31.26870
1326	5.98310	3.1039308	29.2146	7.095586	31.26651
1327	5.99883	3.1042441	28.9906	7.093432	31.25560
1328	6.01171	3.1041640	28.7635	7.091841	31.24292
1329	6.02247	3.1041392	28.5487	7.090491	31.23283
1330	6.03313	3.1044034	28.3400	7.089004	31.22605
1331	6.04252	3.1041942	28.1219	7.087922	31.21517
1332	6.04933	3.1048457	27.9010	7.086722	31.21625
1333	6.05486	3.1052391	27.6832	7.085817	31.21563
1334	6.06457	3.1061121	27.4653	7.084139	31.21651
1335	6.07564	3.1059643	27.2352	7.082813	31.20478
1336	6.08494	3.1066713	27.0235	7.081273	31.20418
1337	6.09572	3.1063760	26.7935	7.080062	31.19109
1338	6.10726	3.1071445	26.5634	7.078208	31.18913
1339	6.12059	3.1073288	26.3304	7.076431	31.17904
1340	6.13758	3.1080604	26.1126	7.073912	31.17165
1341	6.15581	3.1085584	25.8885	7.071359	31.16055
1342	6.17154	3.1087919	25.6585	7.069256	31.14881
1343	6.18377	3.1080597	25.4288	7.068089	31.12960
1344	6.19528	3.1095912	25.2076	7.065854	31.13612
1345	6.20278	3.1096033	24.9897	7.064902	31.12949
1346	6.21445	3.1104767	24.7657	7.062986	31.12857
1347	6.23765	3.1113686	24.5417	7.059614	31.11730
1348	6.26266	3.1118359	24.3179	7.056235	31.09971
1349	6.28563	3.1124386	24.0910	7.053044	31.08548
1350	6.31138	3.1134353	23.8578	7.049308	31.07309
1351	6.33229	3.1142044	23.6370	7.046297	31.06260
1352	6.34932	3.1145303	23.4128	7.043997	31.05078
1353	6.36912	3.1149425	23.1920	7.041308	31.03738
1354	6.38703	3.1160688	22.9589	7.038495	31.03359
1355	6.40050	3.1169983	22.7350	7.036339	31.03167
1356	6.41453	3.1176692	22.5171	7.034244	31.02639
1357	6.43185	3.1182910	22.2931	7.031765	31.01759
1358	6.46061	3.1184692	22.0720	7.028085	30.99352
1359	6.48832	3.1198607	21.8452	7.023929	30.98377
1360	6.50936	3.1197681	21.6180	7.021350	30.96377
1361	6.52359	3.1207472	21.3971	7.019084	30.96172
1362	6.54044	3.1220345	21.1855	7.016339	30.96068
1363	6.55627	3.1222007	20.9737	7.014284	30.94826
1364	6.57334	3.1230938	20.7464	7.011711	30.94271
1365	6.59330	3.1237899	20.5225	7.008881	30.93239
1366	6.62423	3.1250220	20.3015	7.004423	30.91802
1367	6.65343	3.1250772	20.0807	7.000772	30.89236
1368	6.67745	3.1258535	19.8536	6.997405	30.87929
1369	6.70509	3.1269873	19.6356	6.993416	30.86686
1370	6.73637	3.1283495	19.4088	6.988868	30.85368
1371	6.76824	3.1295946	19.1847	6.984310	30.83870
1372	6.80411	3.1317405	18.9698	6.978818	30.82995
1373	6.83582	3.1337080	18.7519	6.973934	30.82299
1374	6.87331	3.1357315	18.5219	6.968318	30.81148
1375	6.93038	3.1377614	18.3162	6.960302	30.78250
1376	6.99189	3.1404772	18.0891	6.951420	30.75705
1377	7.04153	3.1436325	17.8620	6.943797	30.74700
1378	7.10149	3.1460969	17.6410	6.935264	30.72030
1379	7.16284	3.1486732	17.4230	6.926525	30.69362
1380	7.21781	3.1523572	17.1931	6.918046	30.68460
1381	7.28619	3.1560923	16.9721	6.907934	30.66423
1382	7.36129	3.1594452	16.7604	6.897218	30.63385
1383	7.44898	3.1620935	16.5486	6.885347	30.58490
1384	7.52622	3.1645879	16.3305	6.874840	30.54365
1385	7.58911	3.1683905	16.1184	6.865465	30.52907
1386	7.66018	3.1717360	15.9068	6.855348	30.50247
1387	7.73328	3.1742520	15.6979	6.845404	30.46534
1388	7.81488	3.1766322	15.4830	6.834531	30.41946
1389	7.87493	3.1791188	15.2771	6.826204	30.39359
1390	7.92253	3.1825123	15.0411	6.818954	30.38819
1391	7.99190	3.1865776	14.8322	6.808823	30.37096
1392	8.06043	3.1876076	14.6233	6.800218	30.32253
1393	8.13281	3.1920481	14.4328	6.789608	30.30673
1394	8.19120	3.1943591	14.2389	6.781652	30.28069
1395	8.25820	3.1969193	14.0483	6.772584	30.24990
1396	8.31672	3.1986222	13.8455	6.764923	30.21751
1397	8.35737	3.2012151	13.6576	6.758968	30.20979
1398	8.39661	3.2053084	13.4670	6.752509	30.21895
1399	8.46116	3.2096214	13.2763	6.743005	30.20869
1400	8.53568	3.2128401	13.0705	6.732854	30.17853
1401	8.63182	3.2172252	12.8708	6.719695	30.14211
1402	8.72585	3.2206649	12.6892	6.707243	30.09780
1403	8.81142	3.2233639	12.5017	6.696138	30.05318
1404	8.88514	3.2257333	12.3168	6.686575	30.01532
1405	8.97820	3.2293075	12.1415	6.674279	29.97363
1406	9.07165	3.2320530	11.9687	6.662339	29.92326
1407	9.15162	3.2350804	11.8054	6.651854	29.88725
1408	9.20857	3.2377969	11.6361	6.644160	29.86741
1409	9.26373	3.2406454	11.4665	6.636628	29.85044
1410	9.29530	3.2435202	11.3001	6.631786	29.85345
1411	9.31683	3.2470277	11.1274	6.627822	29.87128
1412	9.35864	3.2495980	10.9489	6.621960	29.86262
1413	9.42942	3.2518997	10.7764	6.612938	29.82710
1414	9.48119	3.2540770	10.6099	6.606140	29.80621
1415	9.54882	3.2561545	10.4405	6.597606	29.77119
1416	9.61951	3.2581511	10.2649	6.588780	29.73292
1417	9.69266	3.2600480	10.0954	6.579737	29.69170
1418	9.75809	3.2615444	9.9260	6.571749	29.65293
1419	9.82637	3.2639120	9.7502	6.563092	29.62067
1420	9.91691	3.2657222	9.5777	6.552198	29.56468
1421	9.96419	3.2671884	9.4052	6.546302	29.54077
1422	10.04148	3.2673756	9.2296	6.537601	29.47966
1423	10.12634	3.2671866	9.0571	6.528229	29.40885
1424	10.25114	3.2667526	8.8635	6.514542	29.30363
1425	10.37018	3.2663439	8.6939	6.501520	29.20385
1426	10.48086	3.2639109	8.5275	6.490276	29.09130
1427	10.55892	3.2628761	8.3548	6.482081	29.01900
1428	10.63212	3.2610647	8.1885	6.474745	28.94316
1429	10.70227	3.2588216	8.0159	6.467926	28.86577
1430	10.77666	3.2559592	7.8462	6.460894	28.77923
1431	10.83253	3.2536236	7.6859	6.455691	28.71264
1432	10.86519	3.2512577	7.5133	6.453046	28.66406
1433	10.87534	3.2491492	7.3470	6.452768	28.63563
1434	10.90276	3.2468534	7.1805	6.450669	28.59193
1435	10.95784	3.2426949	7.0079	6.446274	28.50869
1436	11.01369	3.2393820	6.8472	6.441460	28.43330
1437	11.07861	3.2364139	6.6689	6.435518	28.35447
1438	11.10705	3.2330163	6.4994	6.433738	28.29974
1439	11.09833	3.2302072	6.3208	6.435792	28.27929
1440	11.13556	3.2263254	6.1450	6.433236	28.21324
1441	11.20752	3.2233992	5.9696	6.426503	28.13004
1442	11.23334	3.2210667	5.7970	6.424588	28.08793
1443	11.26444	3.2189094	5.6093	6.422026	28.04356
1444	11.28919	3.2153507	5.4155	6.420702	27.99058
1445	11.30270	3.2126531	5.2460	6.420271	27.95444
1446	11.32550	3.2106662	5.0644	6.418547	27.91816
1447	11.32910	3.2089787	4.8706	6.418806	27.89929
1448	11.35692	3.2065258	4.6828	6.416714	27.85481
1449	11.37144	3.2037750	4.4861	6.416189	27.81753
1450	11.37859	3.2017032	4.2985	6.416207	27.79234
1451	11.38818	3.1989230	4.1108	6.416232	27.75852
1452	11.39114	3.1967903	3.9231	6.416730	27.73591
1453	11.41953	3.1949935	3.7203	6.414317	27.69750
1454	11.44188	3.1923708	3.5325	6.412882	27.65573
1455	11.44927	3.1907926	3.3419	6.412680	27.63516
1456	11.44910	3.1898918	3.1329	6.413043	27.62674
1457	11.46879	3.1885126	2.9331	6.411419	27.59894
1458	11.47776	3.1866868	2.7242	6.411138	27.57486
1459	11.48236	3.1844082	2.5243	6.411509	27.54972
1460	11.48808	3.1823785	2.3366	6.411663	27.52613
1461	11.49839	3.1807091	2.1338	6.411173	27.50258
1462	11.51828	3.1797719	1.9309	6.409354	27.47895
1463	11.54408	3.1781649	1.7221	6.407147	27.44458
1464	11.53917	3.1755043	1.4919	6.408702	27.42289
1465	11.49577	3.1731735	1.2648	6.414350	27.43282
1466	11.43216	3.1694616	1.0438	6.422759	27.44451
1467	11.37743	3.1648780	0.8531	6.430549	27.44125
1468	11.37731	3.1609031	0.6956	6.432100	27.40330
1469	11.38219	3.1594732	0.5412	6.432114	27.38605
1470	11.36970	3.1621040	0.3749	6.432469	27.42057
1471	11.33270	3.1687994	0.1870	6.433943	27.51233
1472	11.31274	3.1772302	0.0811	6.432863	27.60821
1473	11.38434	3.1768946	0.0812	6.425122	27.55158
1474	11.52394	3.1784996	0.0811	6.409197	27.46328
1475	11.66260	3.1791867	0.0842	6.393786	27.36744
1476	11.76142	3.1786770	0.0842	6.383215	27.28999
1477	11.82089	3.1581319	0.0844	6.384529	27.05187
1478	11.85096	0.7323445	0.0813	7.301709	5.52577
1479	11.82531	0.6060859	0.0844	7.352372	4.51502
1480	11.78832	0.7712618	0.0814	7.297156	5.85124
1481	11.77170	1.0015082	0.0816	7.213384	7.75291
1482	11.76218	0.6985540	0.0846	7.328345	5.26531
1483	11.75056	0.8473278	0.0817	7.274660	6.47989
1484	11.73166	0.9187126	0.0755	7.250772	7.07247
1485	11.70919	0.9178307	0.0757	7.254591	7.06941
1486	11.68445	0.7498518	0.0848	7.321601	5.69289
1487	11.65757	0.7472178	0.0879	7.326863	5.67552
1488	11.62923	0.5690120	0.0848	7.397807	4.24252
1489	11.60116	0.3650798	0.0789	7.477092	2.64607
1490	11.57509	0.4982467	0.0790	7.432810	3.68695
1491	11.55190	0.4657923	0.0789	7.448583	3.43357
1492	11.53030	0.3599387	0.0820	7.490834	2.61145
1493	11.50930	0.4154575	0.0822	7.474128	3.04334
1494	11.48778	0.3909044	0.0822	7.486703	2.85405
1495	11.46710	0.3282279	0.0852	7.512970	2.37196
1496	11.44706	0.2686930	0.0822	7.537803	1.91988
1497	11.42802	0.2483509	0.0825	7.548323	1.76745
1498	11.41022	0.2229913	0.0763	7.560396	1.57819
1499	11.39289	0.2189754	0.0825	7.564797	1.54893
1500	11.37586	0.2367454	0.0854	7.561396	1.68266
1501	11.35930	0.2533229	0.0794	7.558304	1.80819
1502	11.34286	0.2606661	0.0764	7.558482	1.86446
1503	11.32661	0.2187009	0.0735	7.576294	1.54963
1504	11.30995	0.1981635	0.0857	7.586466	1.39723
1505	11.29360	0.1961139	0.0825	7.590019	1.38262
1506	11.27748	0.2024597	0.0765	7.590552	1.43041
1507	11.26143	0.1963961	0.0798	7.595485	1.38590
1508	11.24584	0.1800246	0.0827	7.603991	1.26507
1509	11.22998	0.1857909	0.0736	7.604701	1.30831
1510	11.21447	0.2402836	0.0829	7.587891	1.71663
1511	11.19908	0.2716764	0.0797	7.579180	1.95538
1512	11.18364	0.2428788	0.0859	7.592276	1.73766
1513	11.16814	0.2172578	0.0769	7.604188	1.54538
1514	11.15272	0.2685067	0.0768	7.588315	1.93366
1515	11.13718	0.3046953	0.0798	7.577758	2.21156
1516	11.12205	0.2884413	0.0858	7.586319	2.08764
1517	11.10682	0.2827464	0.0830	7.591029	2.04487
1518	11.09210	0.2870322	0.0800	7.591994	2.07852
1519	11.07751	0.3003360	0.0830	7.589621	2.18155
1520	11.06241	0.2898026	0.0829	7.596098	2.10144
1521	11.04755	0.2648924	0.0861	7.607805	1.91154
1522	11.03378	0.2303138	0.0829	7.622804	1.64949
1523	11.01933	0.2186842	0.0832	7.629542	1.56232
1524	11.00436	0.1997911	0.0801	7.638989	1.42092
1525	10.99056	0.1944589	0.0832	7.643328	1.38150
1526	10.97658	0.2097029	0.0801	7.640260	1.49644
1527	10.96273	0.2501447	0.0864	7.627933	1.80332
1528	10.94916	0.2718772	0.0771	7.622302	1.97011
1529	10.93589	0.2720778	0.0834	7.624534	1.97236
1530	10.92280	0.2437822	0.0803	7.637224	1.75677
1531	10.90948	0.2233108	0.0864	7.647044	1.60195
1532	10.89668	0.2062676	0.0864	7.655500	1.47377
1533	10.88406	0.1928216	0.0834	7.662601	1.37318
1534	10.87133	0.1864434	0.0803	7.667153	1.32584
1535	10.85854	0.1985134	0.0773	7.665020	1.41689
1536	10.84616	0.2066049	0.0741	7.664248	1.47832
1537	10.83396	0.2197656	0.0803	7.661579	1.57833
1538	10.82188	0.3212799	0.0835	7.626032	2.35935
1539	10.80991	0.2931165	0.0805	7.638648	2.14144
1540	10.79852	0.2445901	0.0743	7.658661	1.76884
1541	10.78748	0.2085079	0.0804	7.673880	1.49505
1542	10.77638	0.2586731	0.0804	7.657326	1.87779
1543	10.76528	0.2979252	0.0774	7.644629	2.18130
1544	10.75585	0.4128960	0.0774	7.602762	3.08539
1545	10.74996	0.4339608	0.0864	7.595718	3.25374
1546	10.74179	0.3802907	0.0865	7.617612	2.82802
1547	10.73448	0.3434674	0.0804	7.632847	2.53857
1548	10.72619	0.3220552	0.0836	7.642374	2.37152
1549	10.71723	0.3047587	0.0896	7.650450	2.23726
1550	10.70718	0.2890370	0.0836	7.658111	2.11576
1551	10.69702	0.2780623	0.0804	7.664004	2.03137
1552	10.68657	0.2675331	0.0805	7.669776	1.95062
1553	10.67625	0.2583050	0.0777	7.675038	1.88005
1554	10.66604	0.2497677	0.0773	7.680020	1.81493
1555	10.65606	0.2416274	0.0836	7.684811	1.75296
1556	10.64625	0.2330935	0.0807	7.689717	1.68808
1557	10.63662	0.2251993	0.0836	7.694351	1.62820
1558	10.62693	0.2183151	0.0807	7.698619	1.57614
1559	10.61765	0.2105170	0.0837	7.703153	1.51719
1560	10.60865	0.2060352	0.0867	7.706408	1.48351
1561	10.59954	0.2326880	0.0837	7.698126	1.68711
1562	10.59083	0.2554883	0.0806	7.691142	1.86269
1563	10.58224	0.2556086	0.0775	7.692614	1.86405
1564	10.57365	0.2643651	0.0806	7.690842	1.93210
1565	10.56546	0.2715663	0.0718	7.689577	1.98826
1566	10.55732	0.2610112	0.0805	7.694986	1.90703
1567	10.54908	0.2501176	0.0807	7.700536	1.82339
1568	10.54112	0.2404140	0.0836	7.705584	1.74910
1569	10.53322	0.2306138	0.0746	7.710653	1.67424
1570	10.52538	0.2197217	0.0776	7.716114	1.59123
1571	10.51765	0.2138499	0.0777	7.719678	1.54672
1572	10.50993	0.2125650	0.0808	7.721532	1.53724
1573	10.50288	0.2075024	0.0745	7.724672	1.49894
1574	10.49942	0.1991121	0.0745	7.728410	1.43526
1575	10.49840	0.1974885	0.0836	7.729195	1.42297
1576	10.49386	0.2385623	0.0807	7.714663	1.73710
1577	10.48784	0.2538389	0.0748	7.709983	1.85516
1578	10.48177	0.2618830	0.0776	7.708023	1.91769
1579	10.47626	0.2611319	0.0805	7.709282	1.91216
1580	10.47002	0.2431119	0.0777	7.717186	1.77326
