Scan Count	Temperature [ITS-90, deg C]	Conductivity [S/m]	Depth [salt water, m]	Oxygen Saturation, Weiss [ml/l]	Salinity, Practical [PSU]
1	18.69483	0.0001601	-0.0421	6.520173	0.00951
2	18.69368	0.0001724	-0.0421	6.520324	0.00954
3	18.69232	0.0001632	-0.0421	6.520506	0.00952
4	18.69111	0.0001539	-0.0392	6.520668	0.00950
5	18.69011	0.0001447	-0.0422	6.520802	0.00948
6	18.68939	0.0001447	-0.0422	6.520898	0.00948
7	18.68853	0.0001447	-0.0452	6.521012	0.00948
8	18.68760	0.0001354	-0.0422	6.521136	0.00946
9	18.68638	0.0001385	-0.0361	6.521298	0.00947
10	18.68552	0.0001262	-0.0422	6.521413	0.00945
11	18.68452	0.0001385	-0.0483	6.521546	0.00947
12	18.68366	0.0001354	-0.0361	6.521660	0.00946
13	18.68252	0.0001262	-0.0392	6.521813	0.00945
14	18.68223	0.0001231	-0.0482	6.521852	0.00944
15	18.68152	0.0001169	-0.0391	6.521947	0.00943
16	18.68023	0.0001169	-0.0452	6.522119	0.00943
17	18.67966	0.0001231	-0.0361	6.522194	0.00944
18	18.67866	0.0001169	-0.0423	6.522328	0.00943
19	18.67816	0.0001292	-0.0392	6.522394	0.00945
20	18.67744	0.0001262	-0.0392	6.522490	0.00944
21	18.67651	0.0001262	-0.0422	6.522613	0.00944
22	18.67558	0.0001292	-0.0452	6.522737	0.00945
23	18.67479	0.0001169	-0.0392	6.522843	0.00943
24	18.67451	0.0001231	-0.0392	6.522880	0.00944
25	18.67351	0.0001169	-0.0422	6.523014	0.00943
26	18.67265	0.0001169	-0.0422	6.523128	0.00943
27	18.67179	0.0001231	-0.0361	6.523242	0.00944
28	18.67122	0.0001169	-0.0362	6.523319	0.00943
29	18.67014	0.0001138	-0.0392	6.523462	0.00942
30	18.66921	0.0001262	-0.0483	6.523585	0.00944
31	18.66821	0.0001169	-0.0362	6.523719	0.00943
32	18.66692	0.0001231	-0.0361	6.523890	0.00944
33	18.66585	0.0001169	-0.0422	6.524033	0.00943
34	18.66471	0.0001231	-0.0392	6.524185	0.00943
35	18.66356	0.0001354	-0.0391	6.524337	0.00945
36	18.66256	0.0001262	-0.0392	6.524471	0.00944
37	18.66156	0.0001385	-0.0362	6.524603	0.00946
38	18.66049	0.0001262	-0.0454	6.524747	0.00944
39	18.65920	0.0001292	-0.0391	6.524918	0.00944
40	18.65799	0.0001354	-0.0392	6.525080	0.00945
41	18.65648	0.0001262	-0.0422	6.525281	0.00944
42	18.65505	0.0001292	-0.0392	6.525471	0.00944
43	18.65420	0.0001169	-0.0392	6.525586	0.00942
44	18.65248	0.0001262	-0.0422	6.525814	0.00943
45	18.65098	0.0001231	-0.0362	6.526014	0.00943
46	18.64998	0.0001169	-0.0361	6.526148	0.00942
47	18.64848	0.0001138	-0.0362	6.526348	0.00941
48	18.64669	0.0003390	-0.0270	6.526565	0.00997
49	18.15731	3.3453950	0.0940	5.692875	24.52296
50	15.70141	3.1719520	0.2575	5.976490	24.57188
51	13.61941	3.2099932	0.4089	6.174703	26.26342
52	12.27093	3.2264989	0.5633	6.310429	27.36849
53	11.46378	3.2374324	0.7238	6.393076	28.07224
54	11.00172	3.2475320	0.8085	6.439462	28.52405
55	10.80104	3.2644002	0.8146	6.454743	28.84534
56	10.85877	3.2749343	0.7814	6.444235	28.90285
57	10.98866	3.2835020	0.7571	6.426691	28.88421
58	11.09764	3.2998217	0.7481	6.408456	28.95727
59	11.16485	3.3163621	0.7329	6.394731	29.06497
60	11.20880	3.3163742	0.7238	6.390000	29.03046
61	11.24411	3.3161658	0.6996	6.386287	29.00068
62	11.25088	3.3134361	0.6874	6.386622	28.96893
63	11.14786	3.3144520	0.6814	6.397306	29.05984
64	11.02111	3.3187157	0.6693	6.409294	29.20164
65	10.93652	3.3116937	0.6602	6.421207	29.20038
66	10.83516	3.3028834	0.6512	6.435695	29.19492
67	10.73333	3.3038099	0.6542	6.446405	29.28529
68	10.65794	3.3077339	0.6511	6.453049	29.38433
69	10.60637	3.3130964	0.6572	6.456517	29.47867
70	10.57006	3.3151895	0.6420	6.459634	29.52866
71	10.52879	3.3048573	0.6420	6.468312	29.46005
72	10.47927	3.2982049	0.6360	6.476427	29.43434
73	10.44025	3.2971106	0.6360	6.481153	29.45506
74	10.41956	3.2979664	0.6330	6.483077	29.48027
75	10.40710	3.2971738	0.6179	6.484768	29.48252
76	10.39373	3.2894522	0.6087	6.489378	29.41687
77	10.37607	3.2888867	0.6088	6.491553	29.42555
78	10.36747	3.2959099	0.6270	6.489639	29.50211
79	10.38331	3.3092676	0.6300	6.482458	29.62165
80	10.42307	3.3143653	0.6209	6.476029	29.63981
81	10.44336	3.3163068	0.6300	6.473021	29.64251
82	10.42319	3.2996086	0.6300	6.482011	29.49359
83	10.38801	3.2959097	0.6300	6.487379	29.48545
84	10.36017	3.2887297	0.6240	6.493368	29.43685
85	10.34326	3.2834461	0.6210	6.497388	29.39816
86	10.33314	3.2855757	0.6210	6.497635	29.42746
87	10.32794	3.2913701	0.6270	6.495842	29.48915
88	10.32036	3.2962626	0.6270	6.494678	29.54385
89	10.30759	3.2970805	0.6270	6.495750	29.56235
90	10.29025	3.2949672	0.6210	6.498525	29.55547
91	10.27230	3.2870277	0.6240	6.503755	29.49118
92	10.25605	3.2851430	0.6331	6.506323	29.48565
93	10.25492	3.2903651	0.6301	6.504307	29.53847
94	10.27309	3.2976094	0.6119	6.499334	29.59570
95	10.28822	3.2959736	0.6058	6.498337	29.56713
96	10.28478	3.2972695	0.6179	6.498186	29.58280
97	10.28997	3.3377091	0.6361	6.481076	29.98068
98	10.32375	3.3446643	0.6240	6.474547	30.02199
99	10.45459	3.3466684	0.6089	6.459485	29.93410
100	10.78421	3.3447858	0.6210	6.424535	29.64666
101	11.08466	3.3375740	0.6240	6.395041	29.33479
102	11.28148	3.3303126	0.6301	6.376779	29.10826
103	11.41441	3.3259294	0.6240	6.364264	28.96148
104	11.56066	3.3234539	0.6179	6.349619	28.82359
105	11.63245	3.3212511	0.6331	6.342821	28.74676
106	11.64264	3.3190243	0.6483	6.342588	28.71754
107	11.67385	3.3073136	0.6482	6.343728	28.58135
108	11.71201	3.2746742	0.6361	6.352073	28.24029
109	11.75443	3.2342752	0.6361	6.362866	27.82332
110	11.86574	3.1787071	0.6482	6.371874	27.21377
111	11.99694	3.1386304	0.6483	6.372700	26.74070
112	12.16255	3.1277522	0.6453	6.358740	26.52072
113	12.33142	3.1340229	0.6544	6.338101	26.46012
114	12.44652	3.1332567	0.6483	6.325949	26.37214
115	12.49411	3.1439113	0.6423	6.316918	26.43779
116	12.49938	3.1705659	0.6301	6.306599	26.68184
117	12.46375	3.1859184	0.6301	6.304790	26.85006
118	12.36059	3.1880121	0.6362	6.315055	26.94335
119	12.22054	3.1919704	0.6392	6.328609	27.08116
120	12.09565	3.2025780	0.6452	6.338078	27.27144
121	11.98300	3.2086033	0.6454	6.347941	27.41063
122	11.85202	3.2105285	0.6361	6.361336	27.52526
123	11.76259	3.2124912	0.6301	6.370255	27.61008
124	11.71177	3.2160489	0.6332	6.374401	27.68168
125	11.65962	3.2217964	0.6484	6.377855	27.77533
126	11.58993	3.2217348	0.6514	6.385427	27.82690
127	11.52984	3.2253027	0.6453	6.390576	27.90616
128	11.47088	3.2311315	0.6544	6.394731	28.00646
129	11.42168	3.2355152	0.6695	6.398381	28.08578
130	11.38911	3.2376456	0.6786	6.401095	28.13098
131	11.35000	3.2387268	0.6817	6.404925	28.17115
132	11.32986	3.2391643	0.6727	6.406946	28.19072
133	11.29754	3.2416081	0.6545	6.409511	28.23895
134	11.24468	3.2438089	0.6635	6.414406	28.30064
135	11.19584	3.2436844	0.6757	6.419775	28.33692
136	11.17329	3.2446161	0.6727	6.421868	28.36327
137	11.15872	3.2446476	0.6546	6.423444	28.37479
138	11.12909	3.2448042	0.6363	6.426615	28.39914
139	11.09718	3.2469431	0.6303	6.429259	28.44449
140	11.05273	3.2480255	0.6364	6.433688	28.48937
141	11.00218	3.2500153	0.6636	6.438430	28.54788
142	10.96773	3.2495778	0.6636	6.442371	28.57040
143	10.95841	3.2495466	0.6455	6.443403	28.57734
144	10.93176	3.2509483	0.6455	6.445767	28.61174
145	10.91155	3.2517244	0.6455	6.447673	28.63506
146	10.91413	3.2519747	0.6607	6.447291	28.63548
147	10.89697	3.2512865	0.6637	6.449444	28.64216
148	10.86972	3.2522192	0.6728	6.452060	28.67253
149	10.84347	3.2517564	0.6759	6.455123	28.68854
150	10.82904	3.2518504	0.6759	6.456670	28.70076
151	10.82348	3.2526890	0.6729	6.456946	28.71330
152	10.80911	3.2526266	0.6820	6.458548	28.72395
153	10.78313	3.2532777	0.6820	6.461142	28.75069
154	10.76597	3.2533092	0.6850	6.463014	28.76447
155	10.76683	3.2533092	0.6821	6.462920	28.76380
156	10.75985	3.2534032	0.6639	6.463649	28.77020
157	10.74768	3.2539353	0.6639	6.464774	28.78498
158	10.73522	3.2529090	0.6669	6.466554	28.78473
159	10.72471	3.2529404	0.6791	6.467698	28.79330
160	10.72145	3.2519767	0.6700	6.468442	28.78642
161	10.71471	3.2526902	0.6610	6.468897	28.79872
162	10.69861	3.2534038	0.6640	6.470383	28.81839
163	10.69085	3.2537481	0.6671	6.471099	28.82788
164	10.68092	3.2521899	0.6671	6.472817	28.82042
165	10.67522	3.2521336	0.6641	6.473468	28.82437
166	10.67305	3.2529097	0.6641	6.473395	28.83369
167	10.65725	3.2520400	0.6792	6.475485	28.83761
168	10.63844	3.2517273	0.6823	6.477684	28.84938
169	10.63531	3.2522217	0.6884	6.477830	28.85671
170	10.63406	3.2517273	0.6914	6.478167	28.85284
171	10.62540	3.2510767	0.7005	6.479384	28.85328
172	10.61412	3.2512582	0.6975	6.480555	28.86398
173	10.61076	3.2508578	0.6885	6.481087	28.86270
174	10.60780	3.2507640	0.6915	6.481451	28.86412
175	10.59527	3.2508580	0.6885	6.482796	28.87494
176	10.58759	3.2504514	0.6886	6.483808	28.87702
177	10.58417	3.2504514	0.6825	6.484185	28.87972
178	10.58241	3.2507330	0.6765	6.484266	28.88389
179	10.58469	3.2506078	0.6796	6.484065	28.88086
180	10.59174	3.2499884	0.6826	6.483536	28.86919
181	10.59448	3.2502386	0.6796	6.483133	28.86949
182	10.58429	3.2498008	0.6827	6.484434	28.87324
183	10.56511	3.2487751	0.6857	6.486966	28.87831
184	10.55681	3.2487751	0.6919	6.487883	28.88488
185	10.55044	3.2486876	0.6859	6.488623	28.88906
186	10.53981	3.2485939	0.6889	6.489836	28.89655
187	10.52083	3.2483439	0.6859	6.492035	28.90913
188	10.50822	3.2480313	0.6889	6.493557	28.91604
189	10.50260	3.2480939	0.6980	6.494154	28.92112
190	10.49675	3.2477875	0.7011	6.494925	28.92273
191	10.49261	3.2478188	0.6829	6.495371	28.92634
192	10.48915	3.2478814	0.6951	6.495729	28.92970
193	10.48551	3.2477376	0.7012	6.496190	28.93116
194	10.48557	3.2476938	0.6951	6.496201	28.93069
195	10.48398	3.2479377	0.6982	6.496278	28.93435
196	10.48375	3.2478502	0.6953	6.496339	28.93367
197	10.48375	3.2472560	0.7044	6.496580	28.92781
198	10.47802	3.2469809	0.6984	6.497326	28.92965
199	10.47813	3.2471623	0.6802	6.497240	28.93135
200	10.47496	3.2475063	0.6833	6.497452	28.93726
201	10.46287	3.2470999	0.7014	6.498956	28.94284
202	10.45210	3.2471313	0.7137	6.500137	28.95171
203	10.45476	3.2471938	0.7016	6.499816	28.95021
204	10.46111	3.2470436	0.6985	6.499173	28.94369
205	10.46015	3.2464808	0.6986	6.499509	28.93890
206	10.45074	3.2465434	0.7016	6.500527	28.94700
207	10.44490	3.2466373	0.6987	6.501136	28.95256
208	10.44637	3.2455555	0.7048	6.501412	28.94071
209	10.44274	3.2456430	0.6957	6.501778	28.94446
210	10.43509	3.2463247	0.6927	6.502350	28.95728
211	10.42789	3.2459558	0.7079	6.503298	28.95935
212	10.42324	3.2459559	0.7110	6.503814	28.96304
213	10.42075	3.2455807	0.7080	6.504243	28.96132
214	10.42109	3.2453369	0.6960	6.504304	28.95865
215	10.41661	3.2454620	0.6989	6.504750	28.96344
216	10.40902	3.2450244	0.7021	6.505770	28.96516
217	10.40308	3.2449932	0.7203	6.506443	28.96957
218	10.40370	3.2447493	0.7143	6.506473	28.96667
219	10.40336	3.2444367	0.7083	6.506638	28.96386
220	10.39854	3.2442805	0.7113	6.507236	28.96614
221	10.39152	3.2440055	0.7296	6.508128	28.96900
222	10.39073	3.2439430	0.7265	6.508241	28.96902
223	10.39073	3.2439430	0.7175	6.508241	28.96902
224	10.39005	3.2439430	0.7175	6.508316	28.96956
225	10.38750	3.2435054	0.7237	6.508778	28.96726
226	10.38309	3.2433804	0.7267	6.509319	28.96954
227	10.37686	3.2433555	0.7237	6.510021	28.97425
228	10.37811	3.2432617	0.7207	6.509921	28.97233
229	10.37731	3.2426991	0.7359	6.510238	28.96740
230	10.37233	3.2426429	0.7329	6.510814	28.97081
231	10.36905	3.2424242	0.7178	6.511268	28.97126
232	10.36911	3.2425179	0.6997	6.511223	28.97215
233	10.36504	3.2428555	0.7058	6.511538	28.97873
234	10.36124	3.2423617	0.7180	6.512161	28.97686
235	10.35508	3.2421118	0.7241	6.512949	28.97930
236	10.35021	3.2422056	0.7211	6.513451	28.98410
237	10.35236	3.2421431	0.7030	6.513238	28.98178
238	10.34891	3.2418681	0.7061	6.513733	28.98181
239	10.34637	3.2413994	0.7303	6.514208	28.97919
240	10.34524	3.2412494	0.7546	6.514396	28.97860
241	10.34433	3.2406869	0.7456	6.514726	28.97375
242	10.34812	3.2408431	0.7275	6.514240	28.97229
243	10.34693	3.2411244	0.7215	6.514257	28.97602
244	10.34411	3.2406307	0.7337	6.514774	28.97338
245	10.33642	3.2409370	0.7427	6.515504	28.98254
246	10.33466	3.2406558	0.7428	6.515814	28.98115
247	10.33506	3.2399809	0.7368	6.516046	28.97416
248	10.32963	3.2398247	0.7338	6.516713	28.97694
249	10.32539	3.2398873	0.7309	6.517159	28.98094
250	10.32308	3.2396373	0.7308	6.517519	28.98031
251	10.32082	3.2396061	0.7371	6.517784	28.98180
252	10.32048	3.2396998	0.7219	6.517783	28.98300
253	10.31827	3.2396686	0.7069	6.518041	28.98446
254	10.31144	3.2393625	0.7099	6.518927	28.98688
255	10.30889	3.2391751	0.7221	6.519287	28.98704
256	10.30861	3.2390814	0.7312	6.519357	28.98634
257	10.30607	3.2388315	0.7313	6.519743	28.98589
258	10.30748	3.2387378	0.7283	6.519624	28.98383
259	10.30466	3.2386191	0.7314	6.519987	28.98491
260	10.29794	3.2385254	0.7436	6.520774	28.98934
261	10.29455	3.2384318	0.7527	6.521190	28.99111
262	10.29799	3.2379069	0.7558	6.521021	28.98316
263	10.29839	3.2375634	0.7528	6.521118	28.97944
264	10.29426	3.2377196	0.7407	6.521513	28.98428
265	10.29359	3.2379070	0.7408	6.521512	28.98668
266	10.29138	3.2377821	0.7560	6.521808	28.98719
267	10.28896	3.2376259	0.7500	6.522143	28.98759
268	10.28963	3.2371324	0.7531	6.522269	28.98216
269	10.28873	3.2369450	0.7441	6.522447	28.98102
270	10.28658	3.2372261	0.7290	6.522570	28.98553
271	10.28393	3.2374448	0.7230	6.522777	28.98981
272	10.28218	3.2373199	0.7321	6.523023	28.98997
273	10.27518	3.2372263	0.7473	6.523842	28.99462
274	10.27247	3.2372263	0.7473	6.524144	28.99678
275	10.27321	3.2367328	0.7444	6.524264	28.99130
276	10.27337	3.2366703	0.7505	6.524271	28.99055
277	10.27061	3.2366079	0.7475	6.524605	28.99214
278	10.26592	3.2364830	0.7445	6.525178	28.99464
279	10.25972	3.2361770	0.7476	6.525996	28.99656
280	10.25786	3.2363894	0.7508	6.526117	29.00015
281	10.25921	3.2363894	0.7448	6.525966	28.99907
282	10.26006	3.2362707	0.7509	6.525920	28.99721
283	10.25836	3.2359897	0.7479	6.526224	28.99578
284	10.25379	3.2358024	0.7601	6.526811	28.99757
285	10.25075	3.2358648	0.7632	6.527125	29.00062
286	10.25261	3.2358961	0.7632	6.526905	28.99944
287	10.25267	3.2358024	0.7633	6.526937	28.99847
288	10.25176	3.2356837	0.7663	6.527086	28.99801
289	10.25103	3.2356837	0.7604	6.527168	28.99860
290	10.25024	3.2355900	0.7574	6.527295	28.99830
291	10.25075	3.2354964	0.7545	6.527276	28.99697
292	10.25300	3.2355276	0.7636	6.527012	28.99547
293	10.25295	3.2353402	0.7666	6.527095	28.99366
294	10.25058	3.2350654	0.7546	6.527472	28.99283
295	10.24900	3.2349718	0.7395	6.527687	28.99316
296	10.24669	3.2350342	0.7306	6.527919	28.99563
297	10.24093	3.2350031	0.7336	6.528574	28.99992
298	10.23648	3.2349095	0.7518	6.529110	29.00254
299	10.23732	3.2348470	0.7640	6.529041	29.00124
300	10.23631	3.2345410	0.7641	6.529280	28.99901
301	10.23952	3.2344785	0.7672	6.528947	28.99583
302	10.23862	3.2345660	0.7582	6.529012	28.99742
303	10.23518	3.2345098	0.7734	6.529419	28.99960
304	10.22932	3.2342289	0.7764	6.530189	29.00150
305	10.22966	3.2341664	0.7765	6.530177	29.00061
306	10.23405	3.2341664	0.7736	6.529686	28.99709
307	10.23225	3.2341352	0.7615	6.529900	28.99823
308	10.22966	3.2340103	0.7556	6.530241	28.99907
309	10.22667	3.2340103	0.7617	6.530575	29.00145
310	10.22684	3.2340728	0.7708	6.530530	29.00193
311	10.22729	3.2339791	0.7678	6.530518	29.00064
312	10.22622	3.2338605	0.7831	6.530687	29.00032
313	10.22526	3.2335171	0.7771	6.530935	28.99768
314	10.22385	3.2333360	0.7771	6.531167	28.99700
315	10.22097	3.2332424	0.7742	6.531526	28.99837
316	10.21906	3.2329614	0.7622	6.531856	28.99712
317	10.21472	3.2328990	0.7592	6.532366	28.99997
318	10.21466	3.2330239	0.7471	6.532321	29.00126
319	10.21275	3.2329615	0.7502	6.532561	29.00217
320	10.20920	3.2326868	0.7473	6.533070	29.00228
321	10.20548	3.2326868	0.7443	6.533486	29.00525
322	10.20249	3.2327493	0.7474	6.533794	29.00826
323	10.20103	3.2325932	0.7656	6.534022	29.00787
324	10.19996	3.2323435	0.7839	6.534245	29.00624
325	10.19894	3.2322561	0.7931	6.534394	29.00618
326	10.19934	3.2320938	0.7871	6.534417	29.00425
327	10.20125	3.2319440	0.7780	6.534264	29.00124
328	10.19979	3.2318816	0.7811	6.534454	29.00179
329	10.19613	3.2318816	0.7842	6.534863	29.00471
330	10.19359	3.2321313	0.7935	6.535044	29.00922
331	10.19241	3.2321938	0.7844	6.535150	29.01079
332	10.19230	3.2320689	0.7784	6.535214	29.00964
333	10.19168	3.2321001	0.7724	6.535270	29.01045
334	10.19269	3.2322250	0.7694	6.535106	29.01088
335	10.19556	3.2320377	0.7816	6.534862	29.00672
336	10.19573	3.2319752	0.7817	6.534869	29.00596
337	10.19415	3.2320377	0.7848	6.535019	29.00784
338	10.19252	3.2318504	0.8001	6.535279	29.00728
339	10.19185	3.2316694	0.7971	6.535429	29.00602
340	10.19123	3.2317630	0.7942	6.535460	29.00745
341	10.18959	3.2317318	0.7912	6.535655	29.00845
342	10.18807	3.2315446	0.7791	6.535902	29.00781
343	10.18847	3.2315758	0.7701	6.535845	29.00781
344	10.18875	3.2317006	0.7581	6.535762	29.00883
345	10.18999	3.2318816	0.7581	6.535549	29.00963
346	10.19016	3.2317006	0.7764	6.535605	29.00769
347	10.18925	3.2317006	0.7886	6.535706	29.00841
348	10.18987	3.2317318	0.7917	6.535624	29.00822
349	10.18993	3.2315446	0.7887	6.535695	29.00632
350	10.18959	3.2314821	0.7797	6.535758	29.00597
351	10.18751	3.2316070	0.7828	6.535940	29.00888
352	10.18565	3.2315446	0.7950	6.536173	29.00974
353	10.18666	3.2315134	0.8132	6.536073	29.00861
354	10.18604	3.2314198	0.8255	6.536181	29.00817
355	10.18554	3.2312637	0.8043	6.536302	29.00703
356	10.18649	3.2315134	0.7983	6.536092	29.00875
357	10.18576	3.2315446	0.7984	6.536161	29.00965
358	10.18559	3.2313885	0.8076	6.536244	29.00823
359	10.18379	3.2314198	0.8168	6.536433	29.00998
360	10.18278	3.2312949	0.7957	6.536597	29.00955
361	10.18396	3.2312949	0.7775	6.536465	29.00862
362	10.18278	3.2315134	0.7685	6.536507	29.01174
363	10.18222	3.2315134	0.7807	6.536570	29.01218
364	10.18233	3.2313886	0.7961	6.536609	29.01084
365	10.18103	3.2313886	0.8111	6.536754	29.01187
366	10.18013	3.2312950	0.8082	6.536894	29.01167
367	10.18086	3.2312950	0.7962	6.536811	29.01108
368	10.18154	3.2313262	0.7901	6.536723	29.01086
369	10.18086	3.2311764	0.8054	6.536860	29.00990
370	10.17805	3.2311140	0.8115	6.537201	29.01153
371	10.17754	3.2311452	0.8177	6.537245	29.01224
372	10.17737	3.2310515	0.8147	6.537302	29.01145
373	10.17743	3.2309579	0.8057	6.537335	29.01048
374	10.17844	3.2309579	0.8179	6.537221	29.00966
375	10.17788	3.2308955	0.8271	6.537310	29.00949
376	10.17709	3.2308331	0.8484	6.537425	29.00949
377	10.17625	3.2308019	0.8424	6.537532	29.00986
378	10.17377	3.2307582	0.8455	6.537827	29.01141
379	10.17259	3.2308331	0.8335	6.537928	29.01310
380	10.17248	3.2308643	0.8335	6.537928	29.01350
381	10.17231	3.2307083	0.8487	6.538011	29.01208
382	10.17180	3.2306833	0.8458	6.538078	29.01224
383	10.17101	3.2307395	0.8428	6.538143	29.01343
384	10.17135	3.2307707	0.8399	6.538093	29.01347
385	10.17304	3.2306833	0.8429	6.537940	29.01125
386	10.17518	3.2305897	0.8461	6.537739	29.00860
387	10.17248	3.2306209	0.8462	6.538028	29.01108
388	10.17000	3.2306522	0.8553	6.538293	29.01336
389	10.17011	3.2305897	0.8615	6.538306	29.01265
390	10.17129	3.2305273	0.8555	6.538199	29.01109
391	10.17084	3.2305897	0.8616	6.538224	29.01207
392	10.16887	3.2305585	0.8648	6.538458	29.01333
393	10.17005	3.2304961	0.8649	6.538351	29.01176
394	10.16977	3.2304649	0.8680	6.538395	29.01168
395	10.17067	3.2304337	0.8832	6.538308	29.01064
396	10.17354	3.2304961	0.8742	6.537961	29.00897
397	10.17321	3.2305897	0.8803	6.537960	29.01017
398	10.17011	3.2306209	0.8864	6.538294	29.01295
399	10.16786	3.2304961	0.8835	6.538597	29.01351
400	10.16685	3.2305274	0.8836	6.538697	29.01463
401	10.16696	3.2305274	0.8897	6.538685	29.01454
402	10.16555	3.2304650	0.8838	6.538868	29.01505
403	10.16510	3.2303713	0.8869	6.538957	29.01448
404	10.16493	3.2303089	0.8809	6.539002	29.01400
405	10.16645	3.2302153	0.8749	6.538870	29.01185
406	10.16803	3.2302465	0.8720	6.538681	29.01090
407	10.16887	3.2302777	0.8689	6.538573	29.01054
408	10.16718	3.2302153	0.8722	6.538788	29.01127
409	10.16274	3.2301591	0.8783	6.539309	29.01426
410	10.15902	3.2301280	0.8935	6.539738	29.01692
411	10.15733	3.2300968	0.8936	6.539940	29.01796
412	10.15779	3.2300344	0.8936	6.539915	29.01698
413	10.16049	3.2300031	0.8877	6.539625	29.01451
414	10.16178	3.2300031	0.8787	6.539480	29.01348
415	10.15992	3.2299095	0.8727	6.539727	29.01404
416	10.15773	3.2298159	0.8699	6.540011	29.01486
417	10.15756	3.2298471	0.8759	6.540017	29.01531
418	10.15925	3.2298159	0.8730	6.539841	29.01365
419	10.15947	3.2297223	0.8761	6.539854	29.01253
420	10.15767	3.2297223	0.8640	6.540056	29.01398
421	10.15660	3.2297223	0.8792	6.540176	29.01483
422	10.15604	3.2296911	0.8823	6.540252	29.01497
423	10.15430	3.2296038	0.8885	6.540483	29.01549
424	10.15402	3.2294914	0.8947	6.540561	29.01460
425	10.15340	3.2295102	0.8917	6.540622	29.01528
426	10.15244	3.2295414	0.8856	6.540717	29.01636
427	10.15227	3.2295414	0.8919	6.540736	29.01649
428	10.15255	3.2294478	0.8981	6.540743	29.01533
429	10.15278	3.2293541	0.8981	6.540756	29.01422
430	10.15317	3.2293229	0.9043	6.540725	29.01359
431	10.15193	3.2292605	0.8862	6.540889	29.01397
432	10.14946	3.2292918	0.8832	6.541153	29.01626
433	10.14867	3.2293542	0.8773	6.541216	29.01752
434	10.14845	3.2292294	0.8834	6.541293	29.01645
435	10.14754	3.2291670	0.8835	6.541419	29.01655
436	10.14681	3.2292294	0.8896	6.541475	29.01776
437	10.14721	3.2291670	0.8897	6.541457	29.01682
438	10.14839	3.2291108	0.8808	6.541348	29.01532
439	10.14777	3.2291108	0.8656	6.541417	29.01582
440	10.14603	3.2290796	0.8597	6.541625	29.01691
441	10.14451	3.2290796	0.8567	6.541795	29.01813
442	10.14248	3.2291670	0.8629	6.541986	29.02061
443	10.14186	3.2290484	0.8842	6.542104	29.01992
444	10.14316	3.2288612	0.8934	6.542037	29.01702
445	10.14394	3.2289860	0.8874	6.541897	29.01763
446	10.14513	3.2289860	0.8814	6.541765	29.01669
447	10.14423	3.2289860	0.8906	6.541866	29.01741
448	10.14282	3.2287988	0.9089	6.542101	29.01666
449	10.14248	3.2286179	0.9120	6.542213	29.01513
450	10.14124	3.2286428	0.9060	6.542341	29.01638
451	10.14046	3.2286428	0.8939	6.542429	29.01701
452	10.14018	3.2286428	0.8850	6.542461	29.01724
453	10.13995	3.2285555	0.8882	6.542522	29.01655
454	10.13809	3.2283995	0.8851	6.542794	29.01648
455	10.13781	3.2284307	0.8883	6.542813	29.01702
456	10.13973	3.2284619	0.9005	6.542586	29.01579
457	10.14102	3.2283683	0.8975	6.542480	29.01383
458	10.13866	3.2283059	0.8856	6.542770	29.01510
459	10.13669	3.2282123	0.8736	6.543029	29.01575
460	10.13759	3.2281811	0.8675	6.542941	29.01472
461	10.13613	3.2281811	0.8646	6.543105	29.01590
462	10.13360	3.2281250	0.8708	6.543412	29.01736
463	10.13084	3.2280626	0.8799	6.543746	29.01894
464	10.12859	3.2280626	0.8800	6.543998	29.02074
465	10.13045	3.2280938	0.8861	6.543777	29.01957
466	10.13315	3.2281250	0.8923	6.543462	29.01771
467	10.13376	3.2280314	0.8864	6.543432	29.01629
468	10.13281	3.2279066	0.8894	6.543590	29.01581
469	10.13168	3.2279066	0.8896	6.543716	29.01671
470	10.13151	3.2278754	0.8896	6.543748	29.01654
471	10.13236	3.2278130	0.8867	6.543679	29.01524
472	10.13174	3.2276882	0.8959	6.543800	29.01449
473	10.13118	3.2276320	0.8959	6.543886	29.01438
474	10.13151	3.2276570	0.9021	6.543838	29.01436
475	10.13163	3.2276320	0.9082	6.543836	29.01402
476	10.13000	3.2275385	0.9113	6.544058	29.01439
477	10.12803	3.2274449	0.9114	6.544317	29.01504
478	10.12657	3.2274761	0.8964	6.544468	29.01652
479	10.12629	3.2274761	0.8844	6.544499	29.01675
480	10.12775	3.2274137	0.8815	6.544361	29.01496
481	10.12690	3.2273201	0.8816	6.544494	29.01471
482	10.12600	3.2274137	0.8755	6.544556	29.01636
483	10.12724	3.2274449	0.8818	6.544405	29.01568
484	10.12578	3.2273825	0.8788	6.544594	29.01623
485	10.12494	3.2273513	0.8879	6.544702	29.01659
486	10.12584	3.2273201	0.8941	6.544614	29.01556
487	10.12662	3.2271953	0.8942	6.544577	29.01369
488	10.12589	3.2271641	0.8792	6.544672	29.01397
489	10.12584	3.2272265	0.8852	6.544652	29.01463
490	10.12460	3.2271642	0.8854	6.544817	29.01500
491	10.12325	3.2270144	0.8915	6.545030	29.01459
492	10.12263	3.2270456	0.8885	6.545086	29.01539
493	10.12342	3.2270144	0.9007	6.545011	29.01445
494	10.12314	3.2269520	0.9009	6.545069	29.01405
495	10.12246	3.2268273	0.9070	6.545196	29.01335
496	10.12134	3.2267649	0.9041	6.545348	29.01363
497	10.12100	3.2267275	0.8951	6.545401	29.01353
498	10.12111	3.2267337	0.8921	6.545386	29.01350
499	10.11971	3.2267025	0.8953	6.545556	29.01432
500	10.11791	3.2267025	0.8984	6.545758	29.01576
501	10.11549	3.2265840	0.9046	6.546078	29.01651
502	10.11397	3.2265528	0.8986	6.546261	29.01742
503	10.11426	3.2265216	0.8896	6.546242	29.01689
504	10.11437	3.2264592	0.8806	6.546255	29.01618
505	10.11386	3.2263969	0.8837	6.546338	29.01596
506	10.11279	3.2262721	0.8838	6.546509	29.01557
507	10.11313	3.2262097	0.8839	6.546497	29.01468
508	10.11403	3.2262097	0.8779	6.546396	29.01397
509	10.11324	3.2262409	0.8781	6.546471	29.01491
510	10.11122	3.2262409	0.8811	6.546698	29.01653
511	10.10959	3.2261536	0.8872	6.546917	29.01696
512	10.10768	3.2260601	0.8996	6.547170	29.01755
513	10.10689	3.2260601	0.9087	6.547259	29.01818
514	10.10751	3.2259977	0.9118	6.547215	29.01706
515	10.10751	3.2258729	0.9119	6.547267	29.01582
516	10.10807	3.2258417	0.8999	6.547217	29.01507
517	10.10734	3.2258417	0.8970	6.547299	29.01565
518	10.10549	3.2257170	0.8971	6.547558	29.01589
519	10.10335	3.2256608	0.9002	6.547821	29.01704
520	10.10330	3.2256608	0.8851	6.547827	29.01710
521	10.10431	3.2256858	0.8883	6.547703	29.01653
522	10.10369	3.2257482	0.8823	6.547747	29.01765
523	10.10167	3.2256609	0.8914	6.548010	29.01840
524	10.10054	3.2255361	0.8945	6.548188	29.01806
525	10.10021	3.2255673	0.8947	6.548212	29.01864
526	10.10183	3.2255985	0.8917	6.548017	29.01764
527	10.10363	3.2256297	0.8948	6.547802	29.01651
528	10.10279	3.2254924	0.9071	6.547954	29.01582
529	10.10245	3.2253490	0.9132	6.548051	29.01466
530	10.10363	3.2254113	0.9224	6.547893	29.01433
531	10.10363	3.2253801	0.9044	6.547906	29.01402
532	10.10172	3.2253178	0.8893	6.548145	29.01494
533	10.09914	3.2252554	0.8863	6.548461	29.01639
534	10.09723	3.2251993	0.8864	6.548699	29.01736
535	10.09532	3.2251057	0.8866	6.548952	29.01796
536	10.09335	3.2251058	0.8897	6.549172	29.01953
537	10.09212	3.2250746	0.8866	6.549324	29.02021
538	10.09144	3.2250122	0.8777	6.549425	29.02014
539	10.09155	3.2249810	0.8809	6.549426	29.01973
540	10.09105	3.2249498	0.8840	6.549495	29.01983
541	10.08981	3.2248563	0.9023	6.549673	29.01988
542	10.08869	3.2247628	0.9114	6.549838	29.01984
543	10.08874	3.2247066	0.9144	6.549855	29.01924
544	10.08976	3.2246130	0.9086	6.549780	29.01750
545	10.08998	3.2245819	0.8995	6.549768	29.01701
546	10.08942	3.2245819	0.8937	6.549831	29.01747
547	10.08807	3.2245195	0.8967	6.550008	29.01792
548	10.08712	3.2244259	0.9060	6.550154	29.01775
549	10.08610	3.2243948	0.9120	6.550280	29.01825
550	10.08627	3.2243948	0.9091	6.550261	29.01812
551	10.08689	3.2243948	0.9092	6.550192	29.01762
552	10.08672	3.2243636	0.9093	6.550224	29.01745
553	10.08622	3.2243324	0.9155	6.550294	29.01754
554	10.08627	3.2242451	0.9066	6.550323	29.01663
555	10.08706	3.2242700	0.9066	6.550225	29.01624
556	10.08723	3.2242575	0.8975	6.550211	29.01599
557	10.08644	3.2242451	0.8885	6.550304	29.01650
558	10.08627	3.2242451	0.8735	6.550323	29.01664
559	10.08588	3.2242451	0.8766	6.550367	29.01695
560	10.08571	3.2242139	0.8799	6.550399	29.01678
561	10.08509	3.2241827	0.8889	6.550481	29.01696
562	10.08363	3.2241204	0.9011	6.550671	29.01750
563	10.08391	3.2241204	0.9073	6.550640	29.01727
564	10.08493	3.2241515	0.9074	6.550513	29.01677
565	10.08464	3.2241515	0.9136	6.550545	29.01700
566	10.08448	3.2240892	0.9167	6.550590	29.01651
567	10.08453	3.2240268	0.9229	6.550609	29.01584
568	10.08470	3.2240268	0.9259	6.550590	29.01570
569	10.08521	3.2240268	0.9169	6.550534	29.01530
570	10.08532	3.2239956	0.9110	6.550534	29.01490
571	10.08453	3.2240268	0.9050	6.550609	29.01585
572	10.08347	3.2239956	0.8930	6.550742	29.01640
573	10.08200	3.2239956	0.8840	6.550905	29.01757
574	10.08116	3.2240580	0.8871	6.550974	29.01887
575	10.08167	3.2241516	0.8902	6.550879	29.01939
576	10.08223	3.2241516	0.9054	6.550816	29.01893
577	10.08200	3.2241204	0.9146	6.550854	29.01880
578	10.08217	3.2241828	0.9148	6.550809	29.01929
579	10.08307	3.2242451	0.9088	6.550683	29.01919
580	10.08448	3.2242700	0.9058	6.550515	29.01831
581	10.08610	3.2242700	0.9090	6.550332	29.01701
582	10.08728	3.2242700	0.9091	6.550199	29.01606
583	10.08830	3.2242575	0.9031	6.550091	29.01513
584	10.08925	3.2243012	0.8972	6.549966	29.01480
585	10.09049	3.2255674	0.9638	6.549304	29.02640
586	10.08959	3.2241827	1.1214	6.549981	29.01327
587	10.08127	3.2214453	1.3365	6.552051	28.99258
588	10.06572	3.2205227	1.5151	6.554184	28.99577
589	10.04754	3.2187713	1.7153	6.556957	28.99280
590	10.02858	3.2172945	1.9151	6.559707	28.99319
591	10.00615	3.2155812	2.1211	6.562948	28.99399
592	9.98480	3.2146593	2.3089	6.565740	29.00183
593	9.96632	3.2134635	2.5149	6.568325	29.00463
594	9.94824	3.2120561	2.7180	6.570956	29.00500
595	9.93011	3.2111969	2.9148	6.573364	29.01089
596	9.91165	3.2104624	3.1086	6.575759	29.01829
597	9.89164	3.2089621	3.3057	6.578652	29.01928
598	9.86650	3.2066965	3.5086	6.582449	29.01673
599	9.83279	3.2038841	3.7085	6.587451	29.01560
600	9.79676	3.2019684	3.9236	6.592346	29.02530
601	9.75976	3.2002210	4.1295	6.597286	29.03748
602	9.71774	3.1983933	4.3386	6.602839	29.05293
603	9.67404	3.1975109	4.5325	6.608191	29.07926
604	9.62811	3.1958640	4.7143	6.614128	29.09975
605	9.57675	3.1938819	4.9112	6.620837	29.12129
606	9.51400	3.1918445	5.1112	6.628885	29.15156
607	9.44549	3.1904164	5.3171	6.637348	29.19274
608	9.37567	3.1910570	5.5231	6.645090	29.25610
609	9.29679	3.1880205	5.7230	6.655473	29.28971
610	9.21268	3.1850721	5.9199	6.666448	29.32861
611	9.12092	3.1793141	6.1077	6.679564	29.34524
612	8.99791	3.1608673	6.3137	6.701929	29.25773
613	8.80251	3.1390783	6.5167	6.734427	29.19478
614	8.65173	3.1510533	6.7591	6.746839	29.44289
615	8.59336	3.1627722	6.9832	6.748464	29.61275
616	8.57051	3.1664758	7.1862	6.749494	29.67021
617	8.56100	3.1675910	7.4073	6.750115	29.68966
618	8.55355	3.1639121	7.6708	6.752649	29.65766
619	8.50584	3.1569926	7.9404	6.761390	29.62580
620	8.41453	3.1517363	8.1887	6.774560	29.64779
621	8.29343	3.1431474	8.4462	6.792834	29.66015
622	8.15259	3.1361907	8.6947	6.812809	29.70627
623	8.02172	3.1299981	8.9369	6.831335	29.75214
624	7.89330	3.1237116	9.1641	6.849699	29.79513
625	7.77610	3.1187723	9.3823	6.866161	29.84295
626	7.68522	3.1166427	9.6034	6.878171	29.89816
627	7.62218	3.1155106	9.8366	6.886360	29.94022
628	7.57615	3.1153388	10.0577	6.892039	29.97795
629	7.54559	3.1142742	10.2758	6.896265	29.99287
630	7.52443	3.1130620	10.5060	6.899422	29.99813
631	7.50601	3.1118623	10.7452	6.902241	30.00114
632	7.48750	3.1104044	10.9846	6.905197	30.00149
633	7.46710	3.1104600	11.2088	6.907663	30.01962
634	7.45008	3.1097712	11.4482	6.910074	30.02689
635	7.43858	3.1099006	11.6783	6.911422	30.03813
636	7.43332	3.1101653	11.9145	6.911941	30.04540
637	7.42939	3.1107683	12.1387	6.912138	30.05515
638	7.42592	3.1117652	12.3749	6.912090	30.06870
639	7.42104	3.1114699	12.5959	6.912831	30.06968
640	7.39679	3.1094277	12.8232	6.916775	30.06878
641	7.36249	3.1082471	13.0565	6.921540	30.08581
642	7.32713	3.1066547	13.2899	6.926640	30.09939
643	7.28002	3.1035749	13.5352	6.933903	30.10724
644	7.22836	3.1009941	13.7834	6.941498	30.12440
645	7.17740	3.0995262	14.0047	6.948483	30.15297
646	7.12634	3.0981690	14.2347	6.955437	30.18287
647	7.07811	3.0969963	14.4650	6.961963	30.21235
648	7.02811	3.0943255	14.7043	6.969449	30.22725
649	6.96556	3.0925887	14.9376	6.978047	30.26331
650	6.89906	3.0905086	15.1556	6.987321	30.29922
651	6.82687	3.0876622	15.3827	6.997701	30.33192
652	6.76028	3.0862152	15.6039	7.006715	30.37498
653	6.71448	3.0881666	15.8281	7.011461	30.43673
654	6.69060	3.0902655	16.0554	7.013401	30.48074
655	6.67998	3.0914809	16.2764	7.014125	30.50335
656	6.67482	3.0915363	16.4945	7.014745	30.50845
657	6.66214	3.0900512	16.7096	7.017072	30.50343
658	6.64952	3.0906589	16.9276	7.018350	30.52122
659	6.64473	3.0919787	17.1700	7.018295	30.53979
660	6.64797	3.0918499	17.4456	7.017959	30.53537
661	6.65039	3.0935934	17.6637	7.016792	30.55215
662	6.64736	3.0936794	17.8970	7.017134	30.55569
663	6.64277	3.0947602	18.1271	7.017171	30.57148
664	6.63448	3.0927711	18.3603	7.019204	30.55705
665	6.61270	3.0899909	18.5816	7.023317	30.54601
666	6.58229	3.0877822	18.8177	7.028229	30.54890
667	6.55247	3.0874636	19.0448	7.032127	30.57197
668	6.52832	3.0877032	19.2721	7.035036	30.59610
669	6.50844	3.0876114	19.4902	7.037577	30.61280
670	6.49355	3.0872312	19.7204	7.039640	30.62187
671	6.48262	3.0872682	19.9445	7.040996	30.63197
672	6.47175	3.0863789	20.1748	7.042814	30.63187
673	6.46159	3.0867410	20.3838	7.043910	30.64486
674	6.45046	3.0857352	20.6080	7.045819	30.64371
675	6.43677	3.0844474	20.8441	7.048192	30.64175
676	6.42048	3.0839325	21.0773	7.050505	30.65062
677	6.40250	3.0834238	21.3046	7.053027	30.66109
678	6.38396	3.0835099	21.5288	7.055320	30.67860
679	6.36277	3.0832220	21.7560	7.058137	30.69441
680	6.34477	3.0831609	21.9830	7.060440	30.70985
681	6.33019	3.0833144	22.2193	7.062203	30.72458
682	6.31721	3.0838052	22.4525	7.063594	30.74160
683	6.29989	3.0836889	22.6827	7.065841	30.75585
684	6.27976	3.0837505	22.9250	7.068352	30.77461
685	6.26404	3.0843333	23.1462	7.070043	30.79517
686	6.24929	3.0836835	23.3703	7.072240	30.80124
687	6.23464	3.0843337	23.6035	7.073761	30.82158
688	6.22194	3.0843339	23.8186	7.075368	30.83300
689	6.20925	3.0838435	24.0519	7.077227	30.83898
690	6.20033	3.0839847	24.2730	7.078286	30.84854
691	6.19340	3.0841872	24.5092	7.079063	30.85696
692	6.18851	3.0847393	24.7304	7.079404	30.86741
693	6.18718	3.0860887	24.9484	7.078886	30.88344
694	6.18947	3.0868372	25.1757	7.078218	30.88953
695	6.18845	3.0862974	25.4210	7.078628	30.88437
696	6.18219	3.0863282	25.6480	7.079409	30.89030
697	6.17261	3.0860340	25.8662	7.080774	30.89565
698	6.16472	3.0865003	26.0812	7.081537	30.90790
699	6.15688	3.0865004	26.2962	7.082533	30.91493
700	6.14557	3.0882920	26.5175	7.083047	30.94497
701	6.13514	3.0916614	26.7415	7.082643	30.99173
702	6.12461	3.0936198	26.9658	7.082973	31.02296
703	6.11459	3.0944551	27.1958	7.083814	31.04128
704	6.10823	3.0946578	27.4383	7.084518	31.04923
705	6.10350	3.0949588	27.6988	7.084967	31.05678
706	6.09796	3.0957450	27.9200	7.085267	31.07047
707	6.09104	3.0954504	28.1440	7.086297	31.07343
708	6.08479	3.0952049	28.3741	7.087218	31.07632
709	6.08093	3.0951313	28.6135	7.087749	31.07893
710	6.07793	3.0945419	28.8559	7.088437	31.07502
711	6.07417	3.0944315	29.0920	7.088974	31.07713
712	6.06939	3.0947754	29.3313	7.089406	31.08521
713	6.06304	3.0957643	29.5525	7.089704	31.10192
714	6.05664	3.0962741	29.7916	7.090256	31.11334
715	6.05171	3.0961269	30.0400	7.090960	31.11611
716	6.04750	3.0967903	30.2733	7.091156	31.12724
717	6.04369	3.0969501	30.4944	7.091560	31.13241
718	6.03998	3.0973372	30.7186	7.091834	31.14002
719	6.03882	3.0980314	30.9428	7.091628	31.14870
720	6.04019	3.0988669	31.1638	7.091029	31.15663
721	6.04130	3.0996595	31.4093	7.090485	31.16430
722	6.04171	3.1008578	31.6363	7.089821	31.17715
723	6.04156	3.1017490	31.8635	7.089386	31.18709
724	6.03968	3.1019580	32.0937	7.089520	31.19103
725	6.03689	3.1018843	32.3299	7.089916	31.19267
726	6.03364	3.1021610	32.5602	7.090189	31.19863
727	6.02805	3.1017494	32.7874	7.091111	31.19909
728	6.02079	3.1014791	33.0235	7.092173	31.20265
729	6.01582	3.1013072	33.2750	7.092896	31.20520
730	6.01186	3.1014855	33.5020	7.093309	31.21072
731	6.00547	3.1012029	33.7202	7.094267	31.21336
732	5.99943	3.1010125	33.9686	7.095134	31.21669
733	5.99416	3.1008959	34.2109	7.095867	31.22014
734	5.98838	3.1007977	34.4502	7.096654	31.22426
735	5.98260	3.1006934	34.7016	7.097444	31.22831
736	5.97844	3.1006321	34.9409	7.098007	31.23135
737	5.97428	3.1008903	35.1802	7.098405	31.23794
738	5.96749	3.1011055	35.4194	7.099158	31.24650
739	5.96049	3.1013391	35.6496	7.099927	31.25545
740	5.95426	3.1014499	35.8798	7.100664	31.26233
741	5.94707	3.1013394	36.1131	7.101636	31.26763
742	5.94038	3.1013088	36.3554	7.102504	31.27336
743	5.93450	3.1015425	36.5827	7.103132	31.28128
744	5.92787	3.1016041	36.8188	7.103945	31.28799
745	5.91871	3.1014567	37.0429	7.105187	31.29472
746	5.91030	3.1015122	37.2762	7.106227	31.30300
747	5.90484	3.1018135	37.5093	7.106769	31.31132
748	5.90144	3.1021393	37.7548	7.107034	31.31798
749	5.90033	3.1027909	38.0335	7.106843	31.32615
750	5.90261	3.1044384	38.3000	7.105705	31.34232
751	5.90964	3.1073837	38.5332	7.103291	31.36857
752	5.92139	3.1096103	38.7695	7.100656	31.38243
753	5.93430	3.1111052	39.0086	7.098254	31.38702
754	5.94930	3.1135051	39.2359	7.095122	31.39978
755	5.96430	3.1150377	39.4691	7.092442	31.40285
756	5.97819	3.1168168	39.7053	7.089776	31.40970
757	5.99269	3.1186271	39.9356	7.087018	31.41631
758	6.00846	3.1206041	40.1718	7.084016	31.42360
759	6.02450	3.1226863	40.4050	7.080930	31.43181
760	6.04146	3.1241096	40.6382	7.078070	31.43182
761	6.05578	3.1250032	40.8533	7.075816	31.42838
762	6.06711	3.1257428	41.0866	7.074018	31.42600
763	6.07554	3.1261311	41.3106	7.072764	31.42240
764	6.08144	3.1265194	41.5438	7.071830	31.42115
765	6.08616	3.1269695	41.7741	7.071010	31.42166
766	6.08952	3.1273517	41.9980	7.070398	31.42270
767	6.09180	3.1275614	42.2283	7.070009	31.42280
768	6.09364	3.1279745	42.4585	7.069572	31.42559
769	6.09740	3.1286343	42.7071	7.068767	31.42932
770	6.10182	3.1290782	42.9403	7.067989	31.43005
771	6.10548	3.1298183	43.1614	7.067155	31.43477
772	6.11031	3.1307125	43.4067	7.066097	31.44012
773	6.11576	3.1316809	43.6338	7.064923	31.44573
774	6.12181	3.1343769	43.8732	7.062788	31.46996
775	6.12995	3.1382218	44.1063	7.059804	31.50501
776	6.13662	3.1404938	44.3457	7.057812	31.52395
777	6.14084	3.1423218	44.5909	7.056354	31.54022
778	6.14359	3.1432422	44.8303	7.055545	31.54777
779	6.14486	3.1440514	45.0666	7.054977	31.55547
780	6.14471	3.1447681	45.2937	7.054634	31.56346
781	6.14298	3.1451945	45.5208	7.054637	31.56970
782	6.14089	3.1456086	45.7541	7.054690	31.57613
783	6.13880	3.1464119	46.0085	7.054545	31.58687
784	6.13626	3.1477901	46.2570	7.054162	31.60444
785	6.13316	3.1487977	46.5053	7.054039	31.61841
786	6.13020	3.1497064	46.7385	7.053947	31.63114
787	6.12746	3.1504916	46.9930	7.053893	31.64231
788	6.12542	3.1510914	47.2503	7.053845	31.65075
789	6.12313	3.1513574	47.5018	7.053999	31.65573
790	6.11906	3.1515183	47.7530	7.054430	31.66119
791	6.11392	3.1518090	47.9984	7.054927	31.66910
792	6.10914	3.1518401	48.2499	7.055513	31.67379
793	6.10558	3.1521679	48.5134	7.055794	31.68063
794	6.10238	3.1523102	48.7587	7.056126	31.68509
795	6.09902	3.1523474	49.0070	7.056531	31.68852
796	6.09633	3.1524094	49.2645	7.056841	31.69160
797	6.09389	3.1524713	49.5129	7.057119	31.69445
798	6.09038	3.1528301	49.7642	7.057378	31.70160
799	6.08748	3.1533249	50.0217	7.057491	31.70969
800	6.08555	3.1537889	50.2731	7.057500	31.71654
801	6.08479	3.1546301	50.5304	7.057169	31.72650
802	6.08591	3.1557684	50.7759	7.056450	31.73800
803	6.08916	3.1578163	51.0302	7.054999	31.75764
804	6.09328	3.1589364	51.2846	7.053917	31.76613
805	6.09730	3.1597967	51.5423	7.052981	31.77182
806	6.10080	3.1607623	51.7844	7.052054	31.77917
807	6.10380	3.1615424	52.0388	7.051287	31.78492
808	6.10553	3.1621739	52.2902	7.050753	31.79020
809	6.10680	3.1628426	52.5447	7.050258	31.79633
810	6.10726	3.1638644	52.8112	7.049683	31.80715
811	6.10818	3.1649172	53.0625	7.049035	31.81789
812	6.10914	3.1663975	53.3169	7.048161	31.83333
813	6.10981	3.1679649	53.5805	7.047282	31.85003
814	6.10991	3.1690182	53.8350	7.046735	31.86154
815	6.10965	3.1694644	54.0862	7.046543	31.86662
816	6.10838	3.1697124	54.3255	7.046580	31.87046
817	6.10604	3.1698364	54.5739	7.046812	31.87392
818	6.10350	3.1699543	54.8163	7.047073	31.87751
819	6.10101	3.1698924	55.0647	7.047420	31.87904
820	6.09653	3.1701032	55.3100	7.047873	31.88547
821	6.08875	3.1705805	55.5553	7.048600	31.89798
822	6.07813	3.1707109	55.8096	7.049859	31.90930
823	6.06726	3.1707730	56.0579	7.051184	31.92011
824	6.05598	3.1708042	56.3063	7.052575	31.93095
825	6.04577	3.1708044	56.5607	7.053850	31.94045
826	6.03734	3.1708293	56.8213	7.054892	31.94854
827	6.02937	3.1708357	57.0605	7.055885	31.95601
828	6.02140	3.1708916	57.3029	7.056853	31.96404
829	6.01354	3.1709228	57.5543	7.057822	31.97168
830	6.00618	3.1708052	57.8085	7.058803	31.97719
831	5.99817	3.1705327	58.0721	7.059948	31.98159
832	5.99091	3.1702663	58.3477	7.060994	31.98533
833	5.98518	3.1700496	58.6204	7.061826	31.98819
834	5.97910	3.1698638	58.8808	7.062685	31.99173
835	5.97114	3.1695975	59.1413	7.063820	31.99615
836	5.96242	3.1691454	59.3957	7.065146	31.99921
837	5.95365	3.1687490	59.6533	7.066449	32.00294
838	5.94514	3.1684517	59.8984	7.067670	32.00755
839	5.93628	3.1679687	60.1408	7.069031	32.01041
840	5.92544	3.1669405	60.3980	7.070921	32.00904
841	5.91182	3.1661292	60.6435	7.073047	32.01272
842	5.89932	3.1657083	60.9069	7.074832	32.01972
843	5.88854	3.1654359	61.1523	7.076325	32.02675
844	5.88009	3.1650459	61.4188	7.077589	32.03026
845	5.87347	3.1647117	61.6824	7.078597	32.03266
846	5.86856	3.1645632	61.9428	7.079293	32.03552
847	5.86462	3.1644394	62.2034	7.079856	32.03774
848	5.85956	3.1635045	62.4667	7.080980	32.03193
849	5.85183	3.1618639	62.7302	7.082806	32.02074
850	5.84010	3.1607684	62.9877	7.084850	32.01944
851	5.82787	3.1604344	63.2392	7.086561	32.02716
852	5.81787	3.1601994	63.4783	7.087941	32.03389
853	5.81040	3.1598653	63.7238	7.089057	32.03711
854	5.80434	3.1593889	63.9872	7.090071	32.03738
855	5.79909	3.1589620	64.2446	7.090958	32.03745
856	5.79227	3.1583928	64.5020	7.092115	32.03740
857	5.78076	3.1576133	64.7475	7.093971	32.03945
858	5.76603	3.1571309	65.0050	7.096077	32.04789
859	5.75302	3.1569146	65.2594	7.097830	32.05769
860	5.74218	3.1567415	65.4986	7.099287	32.06594
861	5.73184	3.1560797	65.7409	7.100937	32.06820
862	5.72080	3.1556283	65.9954	7.102566	32.07349
863	5.71184	3.1555419	66.2408	7.103744	32.08093
864	5.70554	3.1555234	66.5041	7.104552	32.08659
865	5.70156	3.1555730	66.7558	7.105032	32.09081
866	5.69894	3.1556598	67.0039	7.105321	32.09416
867	5.69743	3.1555980	67.2613	7.105550	32.09478
868	5.69617	3.1555733	67.5189	7.105727	32.09557
869	5.69516	3.1555239	67.7703	7.105885	32.09585
870	5.69410	3.1555426	68.0155	7.106014	32.09695
871	5.69315	3.1555983	68.2668	7.106111	32.09837
872	5.69305	3.1558397	68.5336	7.106003	32.10105
873	5.69385	3.1558707	68.8242	7.105892	32.10049
874	5.69431	3.1560316	69.1027	7.105757	32.10174
875	5.69395	3.1562915	69.3481	7.105670	32.10488
876	5.69254	3.1562916	69.5844	7.105853	32.10611
877	5.69063	3.1564402	69.8358	7.106021	32.10948
878	5.68856	3.1566816	70.0841	7.106160	32.11404
879	5.68680	3.1568858	70.3356	7.106280	32.11790
880	5.68519	3.1571334	70.5929	7.106359	32.12210
881	5.68378	3.1573439	70.8413	7.106431	32.12569
882	5.68247	3.1574925	71.0957	7.106524	32.12849
883	5.68071	3.1576163	71.3440	7.106686	32.13144
884	5.67714	3.1576164	71.5954	7.107141	32.13473
885	5.67079	3.1577032	71.8438	7.107899	32.14164
886	5.66410	3.1578580	72.0953	7.108665	32.14965
887	5.65841	3.1579448	72.3468	7.109341	32.15593
888	5.65243	3.1580935	72.6162	7.110022	32.16319
889	5.64714	3.1581245	72.8586	7.110676	32.16846
890	5.64256	3.1580937	73.1038	7.111274	32.17237
891	5.63799	3.1580938	73.3522	7.111855	32.17662
892	5.63276	3.1580940	73.6065	7.112519	32.18150
893	5.62788	3.1580941	73.8550	7.113139	32.18604
894	5.62386	3.1580942	74.1033	7.113651	32.18976
895	5.62024	3.1579767	74.3576	7.114174	32.19177
896	5.61732	3.1578593	74.6122	7.114609	32.19311
897	5.61456	3.1577666	74.8605	7.115012	32.19459
898	5.61164	3.1577048	75.1088	7.115417	32.19655
899	5.60868	3.1576492	75.3601	7.115826	32.19864
900	5.60571	3.1575565	75.6115	7.116254	32.20031
901	5.60214	3.1573463	75.8721	7.116820	32.20122
902	5.59797	3.1573154	76.1113	7.117367	32.20474
903	5.59315	3.1572537	76.3565	7.118013	32.20854
904	5.58878	3.1572352	76.6048	7.118579	32.21240
905	5.58481	3.1570745	76.8625	7.119170	32.21425
906	5.57994	3.1569261	77.1017	7.119868	32.21712
907	5.57486	3.1568334	77.3531	7.120562	32.22081
908	5.56939	3.1568336	77.5923	7.121258	32.22594
909	5.56392	3.1566976	77.8286	7.122025	32.22953
910	5.55885	3.1565059	78.0859	7.122772	32.23209
911	5.55383	3.1563576	78.3344	7.123489	32.23510
912	5.54906	3.1562958	78.5827	7.124129	32.23886
913	5.54439	3.1561784	78.8462	7.124786	32.24187
914	5.54023	3.1560981	79.1249	7.125360	32.24482
915	5.53656	3.1562343	79.3884	7.125756	32.24975
916	5.53265	3.1563582	79.6399	7.126191	32.25478
917	5.52954	3.1564449	79.8883	7.126543	32.25862
918	5.52698	3.1565069	80.1485	7.126839	32.26165
919	5.52517	3.1565441	80.3938	7.127053	32.26368
920	5.52392	3.1565999	80.6453	7.127187	32.26539
921	5.52312	3.1566866	80.8997	7.127249	32.26702
922	5.52196	3.1566557	81.1418	7.127416	32.26766
923	5.51991	3.1565073	81.3994	7.127760	32.26783
924	5.51745	3.1564456	81.6538	7.128109	32.26936
925	5.51519	3.1564147	81.9020	7.128416	32.27106
926	5.51233	3.1562973	82.1565	7.128845	32.27235
927	5.50953	3.1562665	82.3988	7.129221	32.27457
928	5.50682	3.1561181	82.6501	7.129648	32.27537
929	5.50356	3.1560378	82.8925	7.130107	32.27747
930	5.50030	3.1559389	83.1438	7.130577	32.27936
931	5.49734	3.1559081	83.4012	7.130973	32.28172
932	5.49454	3.1558772	83.6435	7.131350	32.28395
933	5.49183	3.1558773	83.8828	7.131697	32.28644
934	5.48992	3.1558156	84.1281	7.131976	32.28745
935	5.48912	3.1557600	84.3855	7.132113	32.28746
936	5.48887	3.1557601	84.6340	7.132150	32.28758
937	5.48867	3.1557601	84.8823	7.132181	32.28765
938	5.48842	3.1557850	85.1276	7.132205	32.28805
939	5.48832	3.1557603	85.3849	7.132237	32.28774
940	5.48852	3.1557294	85.6305	7.132234	32.28708
941	5.48832	3.1556058	85.8785	7.132330	32.28575
942	5.48657	3.1553399	86.1119	7.132698	32.28431
943	5.48321	3.1551482	86.3574	7.133230	32.28524
944	5.47940	3.1550370	86.6088	7.133776	32.28752
945	5.47549	3.1549505	86.8509	7.134322	32.29017
946	5.47198	3.1549197	87.0963	7.134787	32.29308
947	5.46868	3.1548579	87.3538	7.135244	32.29543
948	5.46637	3.1548952	87.5960	7.135521	32.29795
949	5.46467	3.1548272	87.8535	7.135778	32.29869
950	5.46307	3.1547964	88.0837	7.136003	32.29976
951	5.46151	3.1546789	88.3350	7.136267	32.29980
952	5.46006	3.1546481	88.5711	7.136473	32.30073
953	5.45886	3.1546111	88.8195	7.136650	32.30135
954	5.45766	3.1544689	89.1071	7.136884	32.30075
955	5.45651	3.1543762	89.3919	7.137086	32.30067
956	5.45360	3.1544073	89.6646	7.137443	32.30368
957	5.44804	3.1545002	89.9100	7.138103	32.30996
958	5.44168	3.1545498	90.1581	7.138886	32.31652
959	5.43573	3.1545871	90.4157	7.139626	32.32255
960	5.43132	3.1546181	90.6699	7.140173	32.32702
961	5.42802	3.1546801	90.9182	7.140564	32.33078
962	5.42552	3.1547049	91.1666	7.140873	32.33335
963	5.42351	3.1546803	91.4210	7.141145	32.33487
964	5.42176	3.1547422	91.6664	7.141340	32.33714
965	5.41976	3.1547114	91.9147	7.141615	32.33860
966	5.41821	3.1547671	92.1630	7.141788	32.34060
967	5.41631	3.1547734	92.4082	7.142031	32.34238
968	5.41186	3.1547983	92.6625	7.142587	32.34683
969	5.40555	3.1549221	92.9203	7.143325	32.35419
970	5.39910	3.1550398	93.1685	7.144085	32.36162
971	5.39320	3.1550709	93.4078	7.144821	32.36755
972	5.38845	3.1551205	93.6651	7.145403	32.37257
973	5.38490	3.1551020	93.9197	7.145868	32.37566
974	5.38225	3.1551640	94.1679	7.146176	32.37880
975	5.38015	3.1551332	94.4194	7.146465	32.38035
976	5.37835	3.1551642	94.6675	7.146682	32.38232
977	5.37650	3.1552509	94.9280	7.146876	32.38496
978	5.37450	3.1553438	95.1733	7.147085	32.38783
979	5.37275	3.1553748	95.4276	7.147296	32.38974
980	5.37100	3.1554615	95.6701	7.147477	32.39230
981	5.36930	3.1555234	95.9124	7.147665	32.39452
982	5.36675	3.1555978	96.1698	7.147954	32.39770
983	5.36455	3.1556103	96.4212	7.148232	32.39985
984	5.36240	3.1556413	96.6723	7.148494	32.40215
985	5.36050	3.1556414	96.9178	7.148740	32.40386
986	5.35921	3.1557033	97.1661	7.148877	32.40570
987	5.35821	3.1556910	97.4115	7.149016	32.40641
988	5.35731	3.1557344	97.6597	7.149113	32.40765
989	5.35646	3.1557902	97.8991	7.149196	32.40898
990	5.35536	3.1558521	98.1444	7.149308	32.41063
991	5.35406	3.1558832	98.3988	7.149462	32.41211
992	5.35296	3.1559142	98.6409	7.149591	32.41340
993	5.35176	3.1560009	98.8803	7.149702	32.41543
994	5.35031	3.1559762	99.1408	7.149905	32.41642
995	5.34896	3.1559763	99.4072	7.150082	32.41760
996	5.34771	3.1560135	99.6677	7.150226	32.41910
997	5.34637	3.1561250	99.9282	7.150344	32.42154
998	5.34452	3.1562735	100.1764	7.150504	32.42489
999	5.34247	3.1566077	100.4249	7.150591	32.43055
1000	5.33997	3.1570286	100.6763	7.150689	32.43763
1001	5.33732	3.1572823	100.9243	7.150894	32.44296
1002	5.33588	3.1576289	101.1758	7.150898	32.44818
1003	5.33468	3.1580498	101.4302	7.150831	32.45400
1004	5.33333	3.1583160	101.6847	7.150866	32.45821
1005	5.33163	3.1584398	101.9300	7.151020	32.46114
1006	5.33008	3.1584832	102.1752	7.151199	32.46301
1007	5.32889	3.1585576	102.4237	7.151317	32.46490
1008	5.32799	3.1585577	102.6689	7.151437	32.46565
1009	5.32729	3.1585577	102.9203	7.151531	32.46620
1010	5.32684	3.1585888	103.1654	7.151577	32.46687
1011	5.32614	3.1585827	103.4169	7.151675	32.46735
1012	5.32549	3.1585889	103.6683	7.151760	32.46793
1013	5.32464	3.1586509	103.9105	7.151840	32.46933
1014	5.32414	3.1586510	104.1648	7.151909	32.46969
1015	5.32344	3.1586820	104.4102	7.151987	32.47060
1016	5.32299	3.1586759	104.6527	7.152052	32.47084
1017	5.32229	3.1587379	104.9099	7.152114	32.47210
1018	5.32170	3.1588617	105.1492	7.152129	32.47397
1019	5.32145	3.1590413	105.4006	7.152071	32.47613
1020	5.32130	3.1592208	105.6580	7.151999	32.47819
1021	5.32155	3.1593447	105.8972	7.151907	32.47924
1022	5.32190	3.1594623	106.1487	7.151806	32.48012
1023	5.32209	3.1595552	106.3940	7.151737	32.48086
1024	5.32190	3.1596110	106.6331	7.151738	32.48157
1025	5.32170	3.1596420	106.8906	7.151752	32.48199
1026	5.32125	3.1597969	107.1360	7.151732	32.48406
1027	5.31995	3.1601374	107.3875	7.151720	32.48907
1028	5.31810	3.1605150	107.6327	7.151758	32.49504
1029	5.31685	3.1604532	107.8659	7.151955	32.49543
1030	5.31640	3.1601252	108.1140	7.152193	32.49201
1031	5.31645	3.1599768	108.3564	7.152272	32.49015
1032	5.31715	3.1598530	108.5957	7.152255	32.48795
1033	5.31835	3.1597974	108.8439	7.152139	32.48603
1034	5.31920	3.1600946	109.0982	7.151878	32.48846
1035	5.31885	3.1604536	109.3647	7.151736	32.49275
1036	5.31770	3.1606394	109.6403	7.151789	32.49585
1037	5.31645	3.1606457	109.8978	7.151950	32.49700
1038	5.31556	3.1607263	110.1674	7.152027	32.49865
1039	5.31456	3.1609678	110.4306	7.152030	32.50224
1040	5.31351	3.1609988	110.6791	7.152152	32.50349
1041	5.31286	3.1610918	110.9334	7.152191	32.50505
1042	5.31221	3.1613147	111.1817	7.152159	32.50809
1043	5.31146	3.1615686	111.4303	7.152124	32.51159
1044	5.31081	3.1617234	111.6632	7.152129	32.51386
1045	5.31026	3.1617483	111.9026	7.152191	32.51456
1046	5.30976	3.1617236	112.1418	7.152273	32.51465
1047	5.30971	3.1617608	112.3810	7.152265	32.51500
1048	5.30957	3.1620828	112.6322	7.152117	32.51869
1049	5.30827	3.1623243	112.8747	7.152158	32.52258
1050	5.30697	3.1625968	113.1079	7.152182	32.52682
1051	5.30557	3.1625969	113.3471	7.152365	32.52806
1052	5.30457	3.1628694	113.5865	7.152351	32.53202
1053	5.30318	3.1630181	113.8256	7.152454	32.53495
1054	5.30193	3.1632597	114.0649	7.152488	32.53879
1055	5.29988	3.1634703	114.3011	7.152640	32.54306
1056	5.29794	3.1636190	114.5495	7.152813	32.54652
1057	5.29594	3.1637120	114.7915	7.153021	32.54940
1058	5.29415	3.1636997	115.0339	7.153261	32.55088
1059	5.29235	3.1636812	115.2763	7.153504	32.55230
1060	5.29030	3.1636504	115.5247	7.153786	32.55381
1061	5.28846	3.1635885	115.7789	7.154059	32.55477
1062	5.28591	3.1635886	116.0181	7.154387	32.55713
1063	5.28367	3.1636383	116.2604	7.154650	32.55975
1064	5.28172	3.1636817	116.4968	7.154879	32.56202
1065	5.28013	3.1637375	116.7328	7.155057	32.56409
1066	5.27888	3.1638305	116.9782	7.155171	32.56624
1067	5.27828	3.1639792	117.2234	7.155173	32.56840
1068	5.27773	3.1642827	117.4657	7.155085	32.57227
1069	5.27718	3.1645243	117.6928	7.155031	32.57544
1070	5.27679	3.1647040	117.9443	7.154991	32.57776
1071	5.27679	3.1650075	118.1683	7.154833	32.58110
1072	5.27773	3.1657879	118.4074	7.154300	32.58896
1073	5.27963	3.1663021	118.6317	7.153790	32.59286
1074	5.28127	3.1667853	118.8802	7.153328	32.59665
1075	5.28302	3.1672685	119.1102	7.152853	32.60034
1076	5.28457	3.1675412	119.3614	7.152517	32.60182
1077	5.28576	3.1676899	119.6220	7.152292	32.60222
1078	5.28671	3.1678387	119.8823	7.152099	32.60286
1079	5.28736	3.1679627	120.1277	7.151956	32.60352
1080	5.28766	3.1680928	120.3699	7.151854	32.60459
1081	5.28766	3.1682912	120.6181	7.151753	32.60673
1082	5.28776	3.1683842	120.8694	7.151697	32.60757
1083	5.28811	3.1685020	121.1209	7.151595	32.60845
1084	5.28831	3.1686260	121.3721	7.151510	32.60954
1085	5.28846	3.1688057	121.6175	7.151400	32.61132
1086	5.28856	3.1689855	121.8720	7.151297	32.61315
1087	5.28866	3.1691405	122.1172	7.151207	32.61469
1088	5.28876	3.1693512	122.3746	7.151088	32.61687
1089	5.28886	3.1696797	122.6228	7.150905	32.62039
1090	5.28901	3.1698905	122.8622	7.150779	32.62253
1091	5.28951	3.1700702	123.1103	7.150625	32.62397
1092	5.28980	3.1703182	123.3587	7.150460	32.62638
1093	5.29050	3.1706777	123.6040	7.150185	32.62967
1094	5.29105	3.1709195	123.8432	7.149992	32.63178
1095	5.29155	3.1709505	124.0946	7.149918	32.63152
1096	5.29200	3.1707399	124.3430	7.149980	32.62856
1097	5.29190	3.1706098	124.5911	7.150068	32.62705
1098	5.29155	3.1705913	124.8396	7.150128	32.62705
1099	5.29145	3.1705604	125.0910	7.150163	32.62667
1100	5.29125	3.1705295	125.3393	7.150210	32.62639
1101	5.29095	3.1707093	125.5873	7.150158	32.62861
1102	5.29135	3.1712238	125.8508	7.149838	32.63395
1103	5.29175	3.1716639	126.1053	7.149558	32.63845
1104	5.29230	3.1720111	126.3627	7.149308	32.64174
1105	5.29300	3.1722777	126.6171	7.149083	32.64398
1106	5.29365	3.1724327	126.8624	7.148924	32.64499
1107	5.29415	3.1725506	127.1167	7.148804	32.64572
1108	5.29449	3.1728544	127.3650	7.148603	32.64872
1109	5.29499	3.1730962	127.6133	7.148416	32.65086
1110	5.29539	3.1733381	127.8586	7.148242	32.65311
1111	5.29579	3.1735489	128.0979	7.148084	32.65500
1112	5.29619	3.1736730	128.3492	7.147973	32.65590
1113	5.29644	3.1737288	128.5855	7.147917	32.65618
1114	5.29674	3.1738839	128.8276	7.147802	32.65753
1115	5.29699	3.1740328	129.0701	7.147696	32.65886
1116	5.29714	3.1741196	129.3182	7.147637	32.65958
1117	5.29734	3.1741879	129.5846	7.147581	32.66004
1118	5.29754	3.1742438	129.8361	7.147532	32.66035
1119	5.29764	3.1743059	130.0965	7.147492	32.66083
1120	5.29764	3.1743680	130.3509	7.147465	32.66141
1121	5.29749	3.1744300	130.5991	7.147456	32.66214
1122	5.29749	3.1745665	130.8444	7.147389	32.66358
1123	5.29769	3.1746968	131.0925	7.147300	32.66474
1124	5.29784	3.1747279	131.3347	7.147270	32.66483
1125	5.29804	3.1747590	131.5833	7.147234	32.66486
1126	5.29814	3.1746970	131.8225	7.147260	32.66394
1127	5.29804	3.1746413	132.0769	7.147309	32.66328
1128	5.29789	3.1746972	132.3221	7.147303	32.66394
1129	5.29789	3.1747593	132.5703	7.147276	32.66452
1130	5.29809	3.1747283	132.8128	7.147273	32.66385
1131	5.29794	3.1748214	133.0670	7.147248	32.66493
1132	5.29804	3.1748835	133.3272	7.147208	32.66541
1133	5.29824	3.1749704	133.5664	7.147142	32.66609
1134	5.29839	3.1749829	133.8149	7.147122	32.66596
1135	5.29839	3.1750635	134.0570	7.147085	32.66676
1136	5.29839	3.1750946	134.3054	7.147074	32.66699
1137	5.29849	3.1751567	134.5506	7.147034	32.66748
1138	5.29839	3.1752126	134.7930	7.147022	32.66809
1139	5.29854	3.1752747	135.0352	7.146976	32.66853
1140	5.29869	3.1753057	135.2865	7.146946	32.66861
1141	5.29879	3.1754298	135.5285	7.146873	32.66981
1142	5.29864	3.1756097	135.7681	7.146801	32.67189
1143	5.29874	3.1757276	136.0194	7.146731	32.67301
1144	5.29859	3.1759696	136.2523	7.146626	32.67579
1145	5.29869	3.1763355	136.5068	7.146423	32.67974
1146	5.29884	3.1765775	136.7491	7.146281	32.68223
1147	5.29884	3.1767388	136.9973	7.146200	32.68395
1148	5.29899	3.1768195	137.2488	7.146144	32.68459
1149	5.29904	3.1768816	137.4940	7.146110	32.68513
1150	5.29918	3.1769375	137.7419	7.146067	32.68550
1151	5.29933	3.1769996	137.9968	7.146021	32.68593
1152	5.29938	3.1771237	138.2359	7.145954	32.68718
1153	5.29933	3.1773036	138.4839	7.145870	32.68915
1154	5.29933	3.1776014	138.7355	7.145716	32.69242
1155	5.29948	3.1777566	138.9899	7.145620	32.69392
1156	5.29973	3.1777877	139.2471	7.145578	32.69390
1157	5.29963	3.1778187	139.5043	7.145580	32.69422
1158	5.29978	3.1778808	139.7618	7.145534	32.69466
1159	5.29978	3.1778809	140.0222	7.145540	32.69453
1160	5.29978	3.1778934	140.2734	7.145539	32.69454
1161	5.29983	3.1779121	140.5280	7.145529	32.69458
1162	5.29983	3.1779432	140.7672	7.145518	32.69482
1163	5.29978	3.1779681	141.0151	7.145517	32.69502
1164	5.29988	3.1780302	141.2607	7.145477	32.69551
1165	5.29988	3.1781543	141.5119	7.145416	32.69680
1166	5.29983	3.1782722	141.7633	7.145365	32.69807
1167	5.29983	3.1783406	142.0055	7.145334	32.69873
1168	5.29973	3.1784275	142.2539	7.145306	32.69969
1169	5.29973	3.1784834	142.5047	7.145282	32.70020
1170	5.29978	3.1785145	142.7504	7.145265	32.70038
1171	5.29968	3.1785456	143.0017	7.145267	32.70071
1172	5.29963	3.1785767	143.2501	7.145262	32.70099
1173	5.29968	3.1786078	143.5013	7.145245	32.70117
1174	5.29973	3.1786264	143.7557	7.145235	32.70121
1175	5.29978	3.1787010	143.9977	7.145194	32.70189
1176	5.29968	3.1788189	144.2464	7.145150	32.70320
1177	5.29978	3.1789989	144.4944	7.145047	32.70503
1178	5.30013	3.1791230	144.7428	7.144942	32.70598
1179	5.30013	3.1791541	144.9969	7.144931	32.70621
1180	5.30023	3.1791542	145.2363	7.144924	32.70600
1181	5.30043	3.1792039	145.4874	7.144878	32.70624
1182	5.30033	3.1793032	145.7332	7.144843	32.70735
1183	5.30058	3.1795453	145.9721	7.144688	32.70974
1184	5.30083	3.1797314	146.2142	7.144563	32.71150
1185	5.30108	3.1797563	146.4593	7.144523	32.71142
1186	5.30118	3.1797874	146.6987	7.144500	32.71156
1187	5.30148	3.1798123	146.9410	7.144454	32.71143
1188	5.30158	3.1799985	147.1889	7.144348	32.71333
1189	5.30188	3.1801847	147.4194	7.144216	32.71504
1190	5.30223	3.1803957	147.6646	7.144065	32.71698
1191	5.30278	3.1809108	147.9130	7.143726	32.72219
1192	5.30338	3.1807309	148.1580	7.143752	32.71944
1193	5.30353	3.1809420	148.4003	7.143626	32.72157
1194	5.30393	3.1812833	148.6485	7.143399	32.72495
1195	5.30437	3.1813951	148.8941	7.143288	32.72566
1196	5.30467	3.1818482	149.1513	7.143014	32.73041
1197	5.30602	3.1836109	149.3997	7.141907	32.74905
1198	5.30792	3.1843372	149.6447	7.141285	32.75535
1199	5.30962	3.1847904	149.8990	7.140834	32.75873
1200	5.31081	3.1851568	150.1535	7.140493	32.76161
1201	5.31151	3.1855231	150.4046	7.140215	32.76498
1202	5.31176	3.1858647	150.6532	7.140007	32.76850
1203	5.31111	3.1860076	150.9103	7.140018	32.77063
1204	5.30932	3.1861008	151.1584	7.140201	32.77333
1205	5.30557	3.1861568	151.4068	7.140649	32.77750
1206	5.30183	3.1861320	151.6432	7.141139	32.78076
1207	5.29854	3.1861570	151.9004	7.141547	32.78414
1208	5.29639	3.1861881	152.1426	7.141807	32.78647
1209	5.29464	3.1862131	152.3819	7.142019	32.78835
1210	5.29315	3.1862504	152.6301	7.142194	32.79011
1211	5.29190	3.1863126	152.8630	7.142323	32.79193
1212	5.29045	3.1864617	153.1085	7.142432	32.79492
1213	5.28816	3.1866170	153.3444	7.142643	32.79882
1214	5.28566	3.1867351	153.5898	7.142900	32.80248
1215	5.28297	3.1868283	153.8318	7.143196	32.80606
1216	5.28023	3.1868905	154.0773	7.143514	32.80934
1217	5.27783	3.1869527	154.3256	7.143789	32.81227
1218	5.27569	3.1873130	154.5677	7.143872	32.81835
1219	5.27260	3.1891390	154.8161	7.143289	32.84209
1220	5.26936	3.1912077	155.0552	7.142595	32.86876
1221	5.26721	3.1927549	155.3094	7.142042	32.88839
1222	5.26671	3.1941283	155.5488	7.141374	32.90444
1223	5.26736	3.1948556	155.7968	7.140909	32.91198
1224	5.26811	3.1952534	156.0363	7.140607	32.91566
1225	5.26876	3.1956202	156.2786	7.140335	32.91909
1226	5.26951	3.1959125	156.5296	7.140090	32.92157
1227	5.27000	3.1961052	156.7689	7.139930	32.92316
1228	5.27030	3.1962918	157.0170	7.139798	32.92487
1229	5.27075	3.1965654	157.2565	7.139600	32.92743
1230	5.27115	3.1967768	157.4926	7.139442	32.92933
1231	5.27155	3.1969013	157.7314	7.139331	32.93024
1232	5.27180	3.1970194	157.9707	7.139242	32.93122
1233	5.27205	3.1970506	158.2102	7.139200	32.93121
1234	5.27220	3.1972061	158.4492	7.139103	32.93272
1235	5.27235	3.1972994	158.6884	7.139040	32.93352
1236	5.27250	3.1974176	158.9278	7.138964	32.93460
1237	5.27265	3.1975421	159.1668	7.138884	32.93575
1238	5.27285	3.1976913	159.4090	7.138784	32.93714
1239	5.27339	3.1979961	159.6631	7.138558	32.93995
1240	5.27424	3.1981827	159.9025	7.138357	32.94113
1241	5.27474	3.1983320	160.1475	7.138220	32.94222
1242	5.27554	3.1986056	160.3991	7.137979	32.94443
1243	5.27639	3.1988855	160.6442	7.137728	32.94667
1244	5.27718	3.1990038	160.8924	7.137571	32.94711
1245	5.27783	3.1991966	161.1467	7.137392	32.94854
1246	5.27883	3.1995263	161.3860	7.137096	32.95120
1247	5.27983	3.1997378	161.6431	7.136863	32.95251
1248	5.28073	3.1998871	161.8766	7.136676	32.95321
1249	5.28152	3.2000116	162.1243	7.136514	32.95372
1250	5.28202	3.2001671	162.3698	7.136374	32.95488
1251	5.28272	3.2003786	162.6211	7.136179	32.95648
1252	5.28347	3.2005280	162.8631	7.136011	32.95733
1253	5.28442	3.2009261	163.1085	7.135684	32.96082
1254	5.28566	3.2012621	163.3599	7.135354	32.96330
1255	5.28686	3.2014487	163.5897	7.135109	32.96414
1256	5.28801	3.2016105	163.8412	7.134884	32.96473
1257	5.28886	3.2017225	164.0775	7.134723	32.96505
1258	5.28971	3.2018408	164.3255	7.134559	32.96544
1259	5.29040	3.2019031	164.5555	7.134443	32.96535
1260	5.29080	3.2019342	164.7947	7.134382	32.96519
1261	5.29115	3.2019654	165.0401	7.134327	32.96508
1262	5.29135	3.2020588	165.2823	7.134258	32.96583
1263	5.29160	3.2020900	165.5246	7.134216	32.96582
1264	5.29190	3.2021771	165.7637	7.134137	32.96640
1265	5.29220	3.2024261	166.0059	7.133972	32.96882
1266	5.29305	3.2029674	166.2479	7.133581	32.97404
1267	5.29434	3.2032785	166.4900	7.133258	32.97619
1268	5.29549	3.2036146	166.7294	7.132940	32.97878
1269	5.29704	3.2041373	166.9657	7.132471	32.98310
1270	5.29849	3.2043489	167.2137	7.132182	32.98397
1271	5.29983	3.2046227	167.4529	7.131872	32.98564
1272	5.30073	3.2046228	167.7009	7.131765	32.98464
1273	5.30133	3.2049589	167.9434	7.131516	32.98776
1274	5.30278	3.2056311	168.1823	7.130981	32.99388
1275	5.30482	3.2061539	168.4216	7.130450	32.99771
1276	5.30702	3.2066145	168.6578	7.129934	33.00068
1277	5.30917	3.2073491	168.8968	7.129278	33.00683
1278	5.31241	3.2084198	169.1392	7.128304	33.01572
1279	5.31565	3.2090922	169.3723	7.127544	33.02008
1280	5.31830	3.2095779	169.6206	7.126958	33.02289
1281	5.32075	3.2099454	169.8598	7.126461	33.02455
1282	5.32274	3.2103439	170.0988	7.126003	33.02701
1283	5.32429	3.2106242	170.3471	7.125666	33.02855
1284	5.32559	3.2108360	170.5802	7.125395	33.02957
1285	5.32629	3.2109606	170.8224	7.125247	33.03018
1286	5.32714	3.2112969	171.0616	7.124967	33.03306
1287	5.32804	3.2116022	171.2975	7.124697	33.03554
1288	5.32899	3.2118451	171.5370	7.124454	33.03725
1289	5.32998	3.2120320	171.7729	7.124234	33.03828
1290	5.33078	3.2122750	172.0183	7.124011	33.04014
1291	5.33163	3.2125803	172.2634	7.123747	33.04266
1292	5.33273	3.2128606	172.4994	7.123465	33.04465
1293	5.33368	3.2130475	172.7357	7.123252	33.04573
1294	5.33493	3.2135335	172.9779	7.122842	33.04992
1295	5.33618	3.2138388	173.2172	7.122529	33.05205
1296	5.33723	3.2140257	173.4592	7.122304	33.05302
1297	5.33817	3.2143934	173.6955	7.121994	33.05616
1298	5.33942	3.2148544	173.9317	7.121597	33.06007
1299	5.34067	3.2150975	174.1705	7.121317	33.06149
1300	5.34177	3.2152533	174.4126	7.121102	33.06206
1301	5.34267	3.2153095	174.6463	7.120965	33.06169
1302	5.34322	3.2153718	174.8821	7.120869	33.06174
1303	5.34362	3.2154654	175.1181	7.120774	33.06230
1304	5.34392	3.2155277	175.3514	7.120709	33.06260
1305	5.34402	3.2155590	175.5966	7.120686	33.06273
1306	5.34422	3.2157086	175.8297	7.120586	33.06412
1307	5.34457	3.2158021	176.0687	7.120498	33.06472
1308	5.34477	3.2159580	176.3019	7.120396	33.06619
1309	5.34527	3.2161076	176.5380	7.120259	33.06728
1310	5.34587	3.2162198	176.7739	7.120130	33.06785
1311	5.34607	3.2163258	177.0132	7.120054	33.06874
1312	5.34642	3.2164193	177.2493	7.119966	33.06934
1313	5.34697	3.2166624	177.4823	7.119773	33.07145
1314	5.34741	3.2166937	177.7217	7.119706	33.07125
1315	5.34771	3.2167249	177.9518	7.119657	33.07119
1316	5.34786	3.2168496	178.1875	7.119577	33.07235
1317	5.34821	3.2169369	178.4179	7.119492	33.07288
1318	5.34861	3.2169121	178.6508	7.119461	33.07209
1319	5.34876	3.2169994	178.8904	7.119401	33.07281
1320	5.34906	3.2171241	179.1230	7.119303	33.07382
1321	5.34916	3.2171865	179.3625	7.119263	33.07431
1322	5.34931	3.2172177	179.5984	7.119233	33.07440
1323	5.34951	3.2172489	179.8256	7.119197	33.07445
1324	5.34956	3.2172802	180.0677	7.119179	33.07463
1325	5.34966	3.2174298	180.2979	7.119093	33.07613
1326	5.34991	3.2175234	180.5338	7.119017	33.07683
1327	5.35021	3.2175234	180.7548	7.118985	33.07642
1328	5.35026	3.2175173	181.0001	7.118988	33.07618
1329	5.35031	3.2175859	181.2332	7.118950	33.07679
1330	5.35056	3.2176483	181.4632	7.118891	33.07714
1331	5.35061	3.2177979	181.7021	7.118811	33.07868
1332	5.35096	3.2179538	181.9296	7.118689	33.08000
1333	5.35146	3.2181097	182.1683	7.118549	33.08116
1334	5.35181	3.2183217	182.3924	7.118398	33.08312
1335	5.35246	3.2185087	182.6287	7.118222	33.08449
1336	5.35281	3.2185400	182.8468	7.118167	33.08439
1337	5.35316	3.2185712	183.0886	7.118113	33.08428
1338	5.35336	3.2186585	183.3159	7.118046	33.08497
1339	5.35361	3.2187521	183.5459	7.117971	33.08567
1340	5.35376	3.2187833	183.7758	7.117941	33.08576
1341	5.35401	3.2189081	184.0031	7.117848	33.08682
1342	5.35406	3.2190266	184.2302	7.117784	33.08801
1343	5.35456	3.2192136	184.4602	7.117628	33.08953
1344	5.35471	3.2193072	184.6933	7.117564	33.09033
1345	5.35506	3.2194320	184.9235	7.117460	33.09130
1346	5.35521	3.2195193	185.1499	7.117400	33.09203
1347	5.35551	3.2195817	185.3771	7.117334	33.09233
1348	5.35571	3.2197563	185.6103	7.117222	33.09401
1349	5.35611	3.2199185	185.8464	7.117091	33.09534
1350	5.35656	3.2202303	186.0703	7.116874	33.09834
1351	5.35706	3.2204735	186.3004	7.116687	33.10050
1352	5.35781	3.2207541	186.5306	7.116450	33.10284
1353	5.35846	3.2210908	186.7580	7.116194	33.10592
1354	5.35921	3.2214276	186.9787	7.115926	33.10891
1355	5.36011	3.2216396	187.2177	7.115707	33.11032
1356	5.36085	3.2218579	187.4446	7.115502	33.11195
1357	5.36175	3.2221012	187.6720	7.115266	33.11372
1358	5.36250	3.2223507	187.9018	7.115044	33.11571
1359	5.36335	3.2227810	188.1319	7.114715	33.11966
1360	5.36465	3.2233985	188.3530	7.114229	33.12530
1361	5.36600	3.2239786	188.5859	7.113757	33.13046
1362	5.36760	3.2250265	188.8162	7.113005	33.14070
1363	5.37000	3.2260746	189.0400	7.112153	33.15016
1364	5.37295	3.2277655	189.2639	7.110890	33.16639
1365	5.37675	3.2290947	189.4941	7.109715	33.17766
1366	5.38050	3.2299560	189.7272	7.108795	33.18365
1367	5.38360	3.2305428	189.9542	7.108102	33.18716
1368	5.38620	3.2310359	190.1751	7.107521	33.19009
1369	5.38810	3.2314979	190.4082	7.107044	33.19336
1370	5.38965	3.2318975	190.6352	7.106643	33.19626
1371	5.39090	3.2321785	190.8592	7.106344	33.19811
1372	5.39190	3.2323659	191.0893	7.106125	33.19914
1373	5.39275	3.2325470	191.3103	7.105928	33.20025
1374	5.39325	3.2327031	191.5312	7.105788	33.20142
1375	5.39370	3.2328281	191.7580	7.105671	33.20229
1376	5.39410	3.2329530	191.9913	7.105560	33.20320
1377	5.39445	3.2330405	192.2155	7.105475	33.20373
1378	5.39470	3.2331342	192.4394	7.105399	33.20444
1379	5.39510	3.2331967	192.6755	7.105322	33.20464
1380	5.39520	3.2332904	192.8933	7.105265	33.20550
1381	5.39555	3.2333779	193.1173	7.105180	33.20603
1382	5.39575	3.2334779	193.3413	7.105107	33.20686
1383	5.39595	3.2335654	193.5654	7.105041	33.20755
1384	5.39640	3.2336903	193.7800	7.104924	33.20842
1385	5.39695	3.2337841	194.0105	7.104811	33.20882
1386	5.39730	3.2338466	194.2313	7.104739	33.20908
1387	5.39760	3.2339091	194.4491	7.104674	33.20938
1388	5.39775	3.2339716	194.6823	7.104627	33.20983
1389	5.39785	3.2340341	194.8972	7.104587	33.21034
1390	5.39810	3.2340904	195.1179	7.104531	33.21062
1391	5.39820	3.2342153	195.3422	7.104457	33.21183
1392	5.39845	3.2343091	195.5634	7.104381	33.21254
1393	5.39865	3.2344965	195.7838	7.104262	33.21436
1394	5.39905	3.2347089	196.0052	7.104105	33.21627
1395	5.39955	3.2348651	196.2231	7.103965	33.21745
1396	5.40010	3.2350212	196.4470	7.103818	33.21857
1397	5.40040	3.2352961	196.6590	7.103640	33.22130
1398	5.40090	3.2354523	196.8886	7.103500	33.22246
1399	5.40115	3.2355773	197.1130	7.103408	33.22353
1400	5.40135	3.2357335	197.3341	7.103305	33.22500
1401	5.40155	3.2358210	197.5488	7.103239	33.22569
1402	5.40155	3.2359460	197.7791	7.103178	33.22699
1403	5.40160	3.2360397	197.9906	7.103127	33.22790
1404	5.40150	3.2361647	198.2118	7.103078	33.22932
1405	5.40150	3.2362585	198.4326	7.103034	33.23027
1406	5.40135	3.2363523	198.6503	7.103008	33.23138
1407	5.40130	3.2364710	198.8682	7.102956	33.23267
1408	5.40140	3.2365648	199.0924	7.102899	33.23353
1409	5.40150	3.2366585	199.3077	7.102842	33.23439
1410	5.40160	3.2367523	199.5254	7.102784	33.23524
1411	5.40175	3.2369085	199.7494	7.102688	33.23676
1412	5.40190	3.2369960	199.9673	7.102628	33.23750
1413	5.40215	3.2371211	200.1848	7.102536	33.23857
1414	5.40220	3.2372461	200.4090	7.102468	33.23983
1415	5.40255	3.2373086	200.6241	7.102397	33.24009
1416	5.40280	3.2374024	200.8421	7.102321	33.24080
1417	5.40295	3.2374961	201.0600	7.102257	33.24161
1418	5.40310	3.2375587	201.2778	7.102211	33.24206
1419	5.40325	3.2375587	201.4959	7.102197	33.24180
1420	5.40350	3.2376775	201.7167	7.102108	33.24280
1421	5.40375	3.2377713	201.9344	7.102032	33.24351
1422	5.40400	3.2378650	202.1524	7.101956	33.24422
1423	5.40420	3.2378964	202.3766	7.101920	33.24426
1424	5.40445	3.2379589	202.5945	7.101861	33.24462
1425	5.40455	3.2380527	202.8034	7.101804	33.24548
1426	5.40470	3.2380840	203.0245	7.101774	33.24558
1427	5.40480	3.2381465	203.2360	7.101733	33.24608
1428	5.40480	3.2382653	203.4479	7.101675	33.24733
1429	5.40490	3.2383278	203.6414	7.101634	33.24784
1430	5.40495	3.2383591	203.7993	7.101615	33.24807
1431	5.40500	3.2381780	203.9051	7.101707	33.24591
1432	5.40495	3.2374345	203.9749	7.102110	33.23746
1433	5.40500	3.2369723	203.9934	7.102349	33.23214
1434	5.40470	3.2368161	203.9843	7.102469	33.23066
1435	5.40405	3.2367849	203.9665	7.102566	33.23096
1436	5.40355	3.2367849	203.9483	7.102628	33.23146
1437	5.40310	3.2369723	203.9486	7.102585	33.23404
1438	5.40270	3.2371535	203.9548	7.102538	33.23650
1439	5.40260	3.2370910	203.9636	7.102584	33.23588
1440	5.40250	3.2367224	203.9368	7.102792	33.23180
1441	5.40250	3.2367224	203.8643	7.102790	33.23183
1442	5.40240	3.2367536	203.7679	7.102784	33.23234
1443	5.40225	3.2368160	203.6409	7.102766	33.23326
1444	5.40220	3.2368785	203.5080	7.102736	33.23409
1445	5.40225	3.2368472	203.3691	7.102743	33.23375
1446	5.40240	3.2368471	203.2210	7.102721	33.23368
1447	5.40235	3.2368783	203.0698	7.102707	33.23416
1448	5.40235	3.2368783	202.9098	7.102704	33.23424
1449	5.40240	3.2368782	202.7617	7.102694	33.23426
1450	5.40230	3.2368470	202.6107	7.102719	33.23408
1451	5.40235	3.2367844	202.4626	7.102743	33.23339
1452	5.40235	3.2367844	202.3148	7.102739	33.23347
1453	5.40245	3.2368156	202.1665	7.102707	33.23380
1454	5.40245	3.2368780	202.0092	7.102670	33.23459
1455	5.40235	3.2369966	201.8551	7.102616	33.23611
1456	5.40245	3.2370591	201.7164	7.102567	33.23679
1457	5.40240	3.2370590	201.5592	7.102570	33.23692
1458	5.40250	3.2370590	201.4109	7.102554	33.23690
1459	5.40290	3.2370901	201.2631	7.102484	33.23693
1460	5.40370	3.2371526	201.1091	7.102348	33.23693
1461	5.40440	3.2372150	200.9638	7.102224	33.23702
1462	5.40520	3.2372774	200.8037	7.102088	33.23702
1463	5.40550	3.2373086	200.6377	7.102030	33.23716
1464	5.40580	3.2373710	200.4533	7.101955	33.23766
1465	5.40605	3.2374959	200.2807	7.101854	33.23892
1466	5.40630	3.2376457	200.1027	7.101739	33.24047
1467	5.40645	3.2377394	199.9214	7.101666	33.24148
1468	5.40675	3.2378018	199.7341	7.101591	33.24199
1469	5.40680	3.2378642	199.5464	7.101547	33.24274
1470	5.40685	3.2378641	199.3683	7.101537	33.24278
1471	5.40670	3.2378641	199.1810	7.101551	33.24303
1472	5.40655	3.2378640	198.9964	7.101566	33.24327
1473	5.40655	3.2378015	198.8121	7.101595	33.24265
1474	5.40640	3.2378014	198.6247	7.101609	33.24289
1475	5.40640	3.2377389	198.4344	7.101638	33.24227
1476	5.40620	3.2377389	198.2529	7.101658	33.24256
1477	5.40605	3.2377076	198.0625	7.101689	33.24245
1478	5.40615	3.2376763	197.8750	7.101689	33.24209
1479	5.40610	3.2376450	197.6911	7.101707	33.24187
1480	5.40600	3.2375887	197.5096	7.101745	33.24142
1481	5.40600	3.2375574	197.3193	7.101758	33.24116
1482	5.40575	3.2375261	197.1290	7.101801	33.24115
1483	5.40575	3.2374636	196.9321	7.101829	33.24054
1484	5.40565	3.2374323	196.7419	7.101854	33.24038
1485	5.40550	3.2373385	196.5546	7.101918	33.23955
1486	5.40535	3.2372135	196.3579	7.101999	33.23838
1487	5.40525	3.2371510	196.1676	7.102040	33.23786
1488	5.40540	3.2370885	195.9803	7.102050	33.23709
1489	5.40530	3.2370259	195.7778	7.102091	33.23658
1490	5.40545	3.2370259	195.5965	7.102068	33.23652
1491	5.40560	3.2369696	195.4089	7.102075	33.23583
1492	5.40560	3.2369071	195.2219	7.102103	33.23521
1493	5.40565	3.2368758	195.0251	7.102109	33.23490
1494	5.40570	3.2368133	194.8285	7.102132	33.23424
1495	5.40585	3.2367507	194.6353	7.102142	33.23348
1496	5.40600	3.2366882	194.4507	7.102152	33.23271
1497	5.40615	3.2366569	194.2574	7.102145	33.23230
1498	5.40615	3.2365944	194.0671	7.102174	33.23169
1499	5.40620	3.2365631	193.8673	7.102180	33.23138
1500	5.40610	3.2364693	193.6711	7.102237	33.23051
1501	5.40615	3.2364068	193.4717	7.102260	33.22985
1502	5.40595	3.2363193	193.2749	7.102326	33.22915
1503	5.40580	3.2362568	193.0726	7.102374	33.22869
1504	5.40565	3.2361630	192.8668	7.102437	33.22788
1505	5.40535	3.2361005	192.6615	7.102503	33.22756
1506	5.40515	3.2360067	192.4440	7.102572	33.22680
1507	5.40495	3.2359755	192.2262	7.102609	33.22675
1508	5.40500	3.2358817	192.0116	7.102647	33.22575
1509	5.40485	3.2358192	191.8060	7.102694	33.22529
1510	5.40465	3.2357317	191.5885	7.102761	33.22460
1511	5.40430	3.2357004	191.3768	7.102816	33.22469
1512	5.40425	3.2356691	191.1560	7.102834	33.22450
1513	5.40400	3.2356066	190.9416	7.102893	33.22414
1514	5.40380	3.2355440	190.7300	7.102946	33.22373
1515	5.40350	3.2356064	190.5031	7.102945	33.22486
1516	5.40355	3.2357313	190.2796	7.102867	33.22634
1517	5.40355	3.2355438	190.0497	7.102961	33.22432
1518	5.40355	3.2354501	189.8288	7.103006	33.22336
1519	5.40330	3.2353563	189.6173	7.103082	33.22265
1520	5.40305	3.2353563	189.3875	7.103108	33.22301
1521	5.40295	3.2352937	189.1668	7.103148	33.22251
1522	5.40270	3.2351438	188.9825	7.103255	33.22114
1523	5.40215	3.2347691	188.8709	7.103519	33.21748
1524	5.40125	3.2340634	188.8405	7.104006	33.21035
1525	5.39970	3.2336575	188.8529	7.104415	33.20726
1526	5.39805	3.2335077	188.8588	7.104700	33.20718
1527	5.39700	3.2338137	188.8409	7.104668	33.21171
1528	5.39640	3.2348940	188.7836	7.104167	33.22464
1529	5.39605	3.2355747	188.6808	7.103846	33.23278
1530	5.39640	3.2356371	188.5447	7.103766	33.23322
1531	5.39745	3.2355746	188.3908	7.103665	33.23154
1532	5.39860	3.2354496	188.2367	7.103585	33.22906
1533	5.39935	3.2349874	188.1036	7.103734	33.22312
1534	5.39965	3.2348000	187.9708	7.103793	33.22076
1535	5.39965	3.2350810	187.8376	7.103641	33.22402
1536	5.39975	3.2353870	187.6837	7.103462	33.22749
1537	5.39990	3.2352933	187.5141	7.103489	33.22636
1538	5.39995	3.2351745	187.3634	7.103543	33.22503
1539	5.40020	3.2350808	187.2212	7.103558	33.22379
1540	5.40020	3.2352057	187.0608	7.103488	33.22529
1541	5.40015	3.2352618	186.8946	7.103460	33.22606
1542	5.40020	3.2352306	186.7224	7.103467	33.22574
1543	5.40030	3.2352305	186.5441	7.103450	33.22573
1544	5.40045	3.2351742	186.3716	7.103457	33.22503
1545	5.40065	3.2351430	186.1996	7.103445	33.22456
1546	5.40065	3.2351429	186.0214	7.103441	33.22465
1547	5.40075	3.2351116	185.8521	7.103441	33.22428
1548	5.40095	3.2351116	185.6826	7.103412	33.22417
1549	5.40085	3.2350491	185.5224	7.103454	33.22364
1550	5.40075	3.2350490	185.3559	7.103463	33.22382
1551	5.40080	3.2350177	185.1777	7.103469	33.22350
1552	5.40080	3.2349864	184.9904	7.103481	33.22324
1553	5.40085	3.2349864	184.8060	7.103470	33.22328
1554	5.40080	3.2348926	184.6216	7.103522	33.22236
1555	5.40075	3.2347989	184.4343	7.103574	33.22144
1556	5.39960	3.2347676	184.2495	7.103729	33.22231
1557	5.39700	3.2346739	184.0532	7.104098	33.22392
1558	5.39285	3.2344304	183.8689	7.104740	33.22534
1559	5.38840	3.2337497	183.6787	7.105651	33.22209
1560	5.38435	3.2318953	183.4881	7.107137	33.20507
1561	5.38060	3.2298604	183.3003	7.108682	33.18569
1562	5.37690	3.2285061	183.1222	7.109860	33.17401
1563	5.37400	3.2274889	182.9438	7.110758	33.16538
1564	5.37165	3.2265031	182.7626	7.111572	33.15656
1565	5.36935	3.2256733	182.5777	7.112296	33.14948
1566	5.36720	3.2248124	182.3905	7.113018	33.14188
1567	5.36545	3.2241637	182.2092	7.113577	33.13631
1568	5.36410	3.2236709	182.0459	7.114004	33.13211
1569	5.36290	3.2235462	181.8676	7.114216	33.13196
1570	5.36225	3.2234838	181.6770	7.114326	33.13199
1571	5.36175	3.2238579	181.4868	7.114185	33.13684
1572	5.36115	3.2233963	181.2990	7.114501	33.13227
1573	5.36055	3.2225606	181.1241	7.115017	33.12343
1574	5.36016	3.2224421	180.9395	7.115126	33.12256
1575	5.35961	3.2223485	180.7523	7.115240	33.12213
1576	5.35941	3.2223484	180.5524	7.115260	33.12243
1577	5.35896	3.2220553	180.3499	7.115468	33.11964
1578	5.35856	3.2214566	180.1594	7.115832	33.11331
1579	5.35866	3.2210575	179.9812	7.116028	33.10875
1580	5.35846	3.2218244	179.7907	7.115640	33.11778
1581	5.35866	3.2220987	179.5762	7.115464	33.12082
1582	5.35871	3.2211820	179.3646	7.115941	33.11043
1583	5.35806	3.2204712	179.1800	7.116396	33.10306
1584	5.35761	3.2204088	179.0048	7.116482	33.10288
1585	5.35726	3.2203465	178.8383	7.116555	33.10260
1586	5.35706	3.2203464	178.6722	7.116576	33.10288
1587	5.35671	3.2203463	178.4843	7.116615	33.10332
1588	5.35661	3.2203463	178.2851	7.116623	33.10352
1589	5.35656	3.2210258	178.0736	7.116262	33.11142
1590	5.35671	3.2225908	177.8224	7.115404	33.12923
1591	5.35716	3.2213935	177.5595	7.115979	33.11527
1592	5.35716	3.2200717	177.3235	7.116678	33.10033
1593	5.35686	3.2197661	177.1178	7.116873	33.09725
1594	5.35646	3.2197038	176.9303	7.116952	33.09703
1595	5.35606	3.2197037	176.7403	7.116998	33.09752
1596	5.35591	3.2195166	176.5344	7.117111	33.09564
1597	5.35556	3.2193670	176.3379	7.117230	33.09437
1598	5.35546	3.2193981	176.1444	7.117222	33.09492
1599	5.35536	3.2193606	175.9416	7.117249	33.09470
1600	5.35521	3.2191798	175.7363	7.117359	33.09289
1601	5.35481	3.2189678	175.5335	7.117518	33.09097
1602	5.35436	3.2188742	175.3429	7.117619	33.09044
1603	5.35381	3.2188742	175.1313	7.117683	33.09109
1604	5.35341	3.2188429	174.9230	7.117745	33.09123
1605	5.35296	3.2188117	174.7140	7.117813	33.09143
1606	5.35271	3.2186247	174.5148	7.117939	33.08964
1607	5.35241	3.2184750	174.3061	7.118051	33.08834
1608	5.35216	3.2183814	174.0915	7.118127	33.08762
1609	5.35191	3.2184125	173.8888	7.118137	33.08833
1610	5.35166	3.2183502	173.6802	7.118197	33.08797
1611	5.35136	3.2182254	173.4685	7.118296	33.08695
1612	5.35116	3.2181693	173.2567	7.118346	33.08661
1613	5.35096	3.2181381	173.0635	7.118383	33.08655
1614	5.35086	3.2181068	172.8548	7.118407	33.08640
1615	5.35066	3.2181691	172.6461	7.118394	33.08741
1616	5.35056	3.2181067	172.4312	7.118435	33.08690
1617	5.35031	3.2180131	172.2227	7.118511	33.08619
1618	5.35031	3.2180006	172.0262	7.118513	33.08614
1619	5.35021	3.2180442	171.8236	7.118497	33.08684
1620	5.35016	3.2180441	171.6147	7.118499	33.08700
1621	5.35006	3.2180129	171.4065	7.118523	33.08684
1622	5.35011	3.2181063	171.1947	7.118462	33.08796
1623	5.34996	3.2179816	170.9919	7.118542	33.08679
1624	5.34971	3.2178881	170.7892	7.118619	33.08608
1625	5.34961	3.2179192	170.5810	7.118610	33.08663
1626	5.34951	3.2177944	170.3691	7.118684	33.08542
1627	5.34951	3.2178255	170.1608	7.118662	33.08588
1628	5.34941	3.2177943	169.9577	7.118687	33.08572
1629	5.34901	3.2177382	169.7617	7.118762	33.08557
1630	5.34871	3.2176758	169.5500	7.118828	33.08526
1631	5.34856	3.2181369	169.3257	7.118595	33.09078
1632	5.34846	3.2182553	169.0993	7.118539	33.09234
1633	5.34856	3.2176444	168.8817	7.118847	33.08539
1634	5.34831	3.2173639	168.6788	7.119023	33.08254
1635	5.34786	3.2172766	168.4761	7.119121	33.08209
1636	5.34741	3.2174573	168.2706	7.119077	33.08470
1637	5.34761	3.2173201	168.0650	7.119120	33.08304
1638	5.34776	3.2172452	167.8594	7.119136	33.08214
1639	5.34721	3.2171829	167.6690	7.119234	33.08207
1640	5.34627	3.2171828	167.4574	7.119347	33.08311
1641	5.34547	3.2173946	167.2427	7.119329	33.08642
1642	5.34537	3.2173634	167.0371	7.119354	33.08627
1643	5.34527	3.2171515	166.8313	7.119474	33.08405
1644	5.34512	3.2171514	166.6318	7.119488	33.08430
1645	5.34492	3.2174256	166.4260	7.119362	33.08773
1646	5.34472	3.2176125	166.2116	7.119283	33.09016
1647	5.34482	3.2173943	165.9967	7.119382	33.08769
1648	5.34472	3.2171823	165.7912	7.119502	33.08547
1649	5.34442	3.2171199	165.5856	7.119568	33.08516
1650	5.34392	3.2171510	165.3741	7.119609	33.08611
1651	5.34362	3.2171198	165.1683	7.119658	33.08616
1652	5.34337	3.2169640	164.9564	7.119768	33.08473
1653	5.34307	3.2166585	164.7478	7.119963	33.08165
1654	5.34207	3.2161974	164.5512	7.120329	33.07748
1655	5.34072	3.2157923	164.3458	7.120709	33.07429
1656	5.33867	3.2155243	164.1342	7.121104	33.07337
1657	5.33548	3.2150632	163.9192	7.121744	33.07137
1658	5.33178	3.2142034	163.7229	7.122661	33.06531
1659	5.32749	3.2130385	163.5140	7.123816	33.05637
1660	5.32369	3.2119983	163.3176	7.124842	33.04834
1661	5.32025	3.2110766	163.1151	7.125761	33.04133
1662	5.31735	3.2102546	162.9001	7.126558	33.03492
1663	5.31466	3.2095198	162.6915	7.127283	33.02930
1664	5.31221	3.2089656	162.4919	7.127881	33.02549
1665	5.30967	3.2083244	162.2832	7.128538	33.02078
1666	5.30757	3.2079259	162.0744	7.129009	33.01841
1667	5.30562	3.2074963	161.8539	7.129478	33.01554
1668	5.30378	3.2067929	161.6481	7.130080	33.00943
1669	5.30238	3.2061891	161.4363	7.130574	33.00403
1670	5.30078	3.2058779	161.2247	7.130935	33.00216
1671	5.29943	3.2057222	161.0071	7.131183	33.00182
1672	5.29819	3.2052305	160.7894	7.131597	32.99755
1673	5.29699	3.2048384	160.5777	7.131952	32.99436
1674	5.29564	3.2045335	160.3660	7.132279	32.99231
1675	5.29439	3.2042845	160.1694	7.132565	32.99080
1676	5.29320	3.2041351	159.9608	7.132790	32.99038
1677	5.29180	3.2037991	159.7462	7.133140	32.98803
1678	5.29040	3.2034008	159.5434	7.133524	32.98496
1679	5.28911	3.2030959	159.3406	7.133845	32.98286
1680	5.28811	3.2028470	159.1350	7.134099	32.98110
1681	5.28726	3.2028034	158.9113	7.134223	32.98155
1682	5.28686	3.2026665	158.6786	7.134341	32.98050
1683	5.28631	3.2020257	158.4787	7.134749	32.97383
1684	5.28546	3.2017830	158.2703	7.134980	32.97200
1685	5.28462	3.2018140	158.0646	7.135065	32.97329
1686	5.28392	3.2017829	157.8468	7.135164	32.97373
1687	5.28352	3.2016895	157.6322	7.135260	32.97316
1688	5.28312	3.2012914	157.4265	7.135518	32.96912
1689	5.28257	3.2012291	157.2147	7.135615	32.96905
1690	5.28197	3.2011979	157.0031	7.135702	32.96939
1691	5.28142	3.2012290	156.7884	7.135749	32.97039
1692	5.28073	3.2008992	156.5736	7.136009	32.96743
1693	5.28013	3.2006193	156.3738	7.136229	32.96492
1694	5.27973	3.2005011	156.1774	7.136338	32.96406
1695	5.27908	3.2004388	155.9626	7.136448	32.96410
1696	5.27848	3.2003455	155.7541	7.136568	32.96373
1697	5.27813	3.2001899	155.5394	7.136690	32.96240
1698	5.27778	3.2001028	155.3457	7.136776	32.96185
1699	5.27743	3.2000094	155.1371	7.136865	32.96123
1700	5.27709	3.2000405	154.9313	7.136888	32.96203
1701	5.27689	3.2000715	154.7105	7.136891	32.96269
1702	5.27674	3.2001274	154.4990	7.136875	32.96359
1703	5.27639	3.2000092	154.2903	7.136977	32.96268
1704	5.27614	3.1998599	154.0846	7.137083	32.96133
1705	5.27594	3.1998287	153.8787	7.137120	32.96127
1706	5.27589	3.2001894	153.6611	7.136928	32.96555
1707	5.27619	3.2005003	153.4495	7.136719	32.96891
1708	5.27704	3.2000089	153.2348	7.136871	32.96257
1709	5.27728	3.2000710	153.0352	7.136801	32.96314
1710	5.27714	3.2001020	152.8294	7.136799	32.96374
1711	5.27694	3.2004378	152.6206	7.136639	32.96788
1712	5.27699	3.2009229	152.4061	7.136368	32.97347
1713	5.27738	3.2006429	152.1972	7.136463	32.96999
1714	5.27768	3.2000707	151.9885	7.136727	32.96327
1715	5.27748	3.2000084	151.7949	7.136781	32.96285
1716	5.27723	3.2005246	151.5894	7.136531	32.96909
1717	5.27723	3.2009537	151.3716	7.136296	32.97410
1718	5.27753	3.2005555	151.1568	7.136466	32.96937
1719	5.27773	3.1999460	150.9513	7.136763	32.96232
1720	5.27728	3.1997345	150.7608	7.136928	32.96044
1721	5.27644	3.1997966	150.5521	7.136996	32.96209
1722	5.27614	3.1999769	150.3283	7.136932	32.96455
1723	5.27639	3.2000639	150.1224	7.136849	32.96540
1724	5.27694	3.1997031	149.9047	7.136968	32.96086
1725	5.27684	3.1997030	149.6993	7.136976	32.96106
1726	5.27629	3.1998585	149.4936	7.136957	32.96347
1727	5.27624	3.2001631	149.2757	7.136795	32.96711
1728	5.27644	3.2004367	149.0582	7.136618	32.97015
1729	5.27694	3.2001319	148.8460	7.136714	32.96628
1730	5.27714	3.2000385	148.6405	7.136734	32.96512
1731	5.27723	3.1999141	148.4198	7.136783	32.96372
1732	5.27738	3.1996093	148.2112	7.136922	32.96020
1733	5.27758	3.1997647	148.0024	7.136809	32.96188
1734	5.27788	3.2002870	147.7878	7.136487	32.96765
1735	5.27818	3.2000382	147.5791	7.136577	32.96462
1736	5.27838	3.1995779	147.3670	7.136794	32.95928
1737	5.27853	3.1997955	147.1704	7.136654	32.96172
1738	5.27873	3.2005853	146.9677	7.136201	32.97064
1739	5.27898	3.2009522	146.7501	7.135968	32.97469
1740	5.27918	3.2004981	146.5442	7.136181	32.96941
1741	5.27923	3.1997642	146.3418	7.136563	32.96109
1742	5.27933	3.1997330	146.1484	7.136563	32.96073
1743	5.27928	3.2000066	145.9336	7.136418	32.96401
1744	5.27958	3.1998013	145.7218	7.136485	32.96148
1745	5.27963	3.1990612	145.5099	7.136870	32.95309
1746	5.28003	3.1976869	145.3196	7.137551	32.93711
1747	5.28157	3.1968973	145.1138	7.137775	32.92668
1748	5.28462	3.1961014	144.9082	7.137813	32.91471
1749	5.28821	3.1940315	144.6904	7.138464	32.88768
1750	5.29165	3.1919000	144.4787	7.139167	32.86009
1751	5.29439	3.1903219	144.2791	7.139661	32.83950
1752	5.29649	3.1893466	144.0734	7.139914	32.82643
1753	5.29789	3.1888434	143.8643	7.140003	32.81943
1754	5.29889	3.1875516	143.6498	7.140563	32.80383
1755	5.29968	3.1863717	143.4502	7.141089	32.78969
1756	5.30028	3.1855521	143.2357	7.141447	32.77987
1757	5.30073	3.1853347	143.0299	7.141502	32.77706
1758	5.30078	3.1845152	142.8121	7.141929	32.76777
1759	5.30078	3.1837888	142.6001	7.142313	32.75960
1760	5.30068	3.1835467	142.3915	7.142450	32.75704
1761	5.30083	3.1832984	142.1888	7.142559	32.75417
1762	5.30053	3.1829073	141.9742	7.142801	32.75011
1763	5.30053	3.1824542	141.7591	7.143039	32.74505
1764	5.30038	3.1820879	141.5598	7.143249	32.74112
1765	5.30013	3.1818459	141.3481	7.143405	32.73871
1766	5.30003	3.1816969	141.1513	7.143493	32.73721
1767	5.29983	3.1816037	140.9427	7.143563	32.73645
1768	5.29968	3.1813740	140.7249	7.143700	32.73409
1769	5.29953	3.1810885	140.5285	7.143867	32.73108
1770	5.29958	3.1810326	140.3198	7.143885	32.73049
1771	5.29953	3.1810884	140.1108	7.143857	32.73128
1772	5.29943	3.1810015	139.8960	7.143911	32.73050
1773	5.29933	3.1806974	139.6752	7.144081	32.72724
1774	5.29938	3.1805112	139.4664	7.144170	32.72517
1775	5.29938	3.1804180	139.2576	7.144215	32.72421
1776	5.29943	3.1805110	139.0461	7.144154	32.72533
1777	5.29963	3.1804551	138.8315	7.144153	32.72461
1778	5.29978	3.1802689	138.6104	7.144229	32.72245
1779	5.29983	3.1802688	138.3835	7.144217	32.72251
1780	5.29983	3.1801199	138.1597	7.144292	32.72093
1781	5.29983	3.1796359	137.9449	7.144546	32.71552
1782	5.30003	3.1795862	137.7397	7.144542	32.71486
1783	5.29998	3.1797536	137.5278	7.144454	32.71692
1784	5.30008	3.1798156	137.3219	7.144403	32.71763
1785	5.30008	3.1794805	137.1253	7.144578	32.71391
1786	5.30008	3.1793936	136.9165	7.144620	32.71303
1787	5.30003	3.1794556	136.7107	7.144588	32.71388
1788	5.29998	3.1793314	136.5053	7.144656	32.71262
1789	5.29988	3.1790584	136.2996	7.144810	32.70971
1790	5.29963	3.1789405	136.0999	7.144900	32.70871
1791	5.29968	3.1788784	135.8938	7.144922	32.70805
1792	5.29953	3.1789403	135.6821	7.144903	32.70901
1793	5.29923	3.1787542	135.4677	7.145035	32.70729
1794	5.29914	3.1785742	135.2649	7.145139	32.70544
1795	5.29894	3.1784625	135.0593	7.145219	32.70446
1796	5.29879	3.1785431	134.8353	7.145190	32.70564
1797	5.29864	3.1785740	134.6205	7.145187	32.70624
1798	5.29859	3.1782390	134.4057	7.145368	32.70258
1799	5.29839	3.1780590	134.1999	7.145485	32.70083
1800	5.29829	3.1780280	133.9915	7.145509	32.70068
1801	5.29844	3.1779659	133.7707	7.145518	32.69993
1802	5.29839	3.1777921	133.5587	7.145612	32.69811
1803	5.29834	3.1776928	133.3441	7.145667	32.69713
1804	5.29844	3.1775439	133.1382	7.145729	32.69544
1805	5.29844	3.1774260	132.9416	7.145788	32.69419
1806	5.29849	3.1776058	132.7360	7.145680	32.69630
1807	5.29849	3.1791813	132.5272	7.144832	32.71436
1808	5.29859	3.1805400	132.3215	7.144087	32.72985
1809	5.29859	3.1810860	132.1159	7.143790	32.73618
1810	5.29864	3.1815451	131.9102	7.143533	32.74147
1811	5.29854	3.1820291	131.6952	7.143282	32.74719
1812	5.29854	3.1822711	131.4867	7.143147	32.75005
1813	5.29874	3.1819048	131.2870	7.143313	32.74578
1814	5.29874	3.1816938	131.0780	7.143422	32.74348
1815	5.29874	3.1827549	130.8664	7.142849	32.75568
1816	5.29889	3.1836114	130.6513	7.142366	32.76541
1817	5.29923	3.1840583	130.4370	7.142078	32.77027
1818	5.29933	3.1848466	130.2432	7.141639	32.77926
1819	5.29953	3.1859392	130.0344	7.141024	32.79163
1820	5.29983	3.1869139	129.8258	7.140460	32.80255
1821	5.30083	3.1877646	129.6172	7.139874	32.81138
1822	5.30178	3.1883421	129.4083	7.139441	32.81714
1823	5.30253	3.1889010	129.2056	7.139043	32.82288
1824	5.30313	3.1891929	128.9908	7.138806	32.82573
1825	5.30368	3.1887642	128.7819	7.138961	32.82041
1826	5.30432	3.1883108	128.5854	7.139117	32.81470
1827	5.30492	3.1878201	128.3676	7.139299	32.80863
1828	5.30537	3.1866402	128.1317	7.139869	32.79486
1829	5.30517	3.1860937	127.9077	7.140181	32.78893
1830	5.30477	3.1862426	127.7051	7.140147	32.79112
1831	5.30462	3.1865592	127.5053	7.139991	32.79498
1832	5.30457	3.1865157	127.2844	7.140016	32.79464
1833	5.30487	3.1862735	127.0786	7.140103	32.79169
1834	5.30497	3.1860934	126.8729	7.140182	32.78964
1835	5.30492	3.1853607	126.6580	7.140575	32.78145
1836	5.30492	3.1850564	126.4404	7.140733	32.77809
1837	5.30502	3.1850564	126.2287	7.140715	32.77810
1838	5.30467	3.1851184	126.0229	7.140721	32.77925
1839	5.30452	3.1855653	125.8083	7.140496	32.78460
1840	5.30423	3.1850872	125.5935	7.140784	32.77955
1841	5.30423	3.1847271	125.3819	7.140972	32.77555
1842	5.30432	3.1846960	125.1731	7.140971	32.77520
1843	5.30423	3.1845718	124.9671	7.141045	32.77398
1844	5.30413	3.1846648	124.7673	7.141004	32.77524
1845	5.30388	3.1848758	124.5560	7.140917	32.77800
1846	5.30388	3.1848633	124.3409	7.140919	32.77796
1847	5.30393	3.1853289	124.1353	7.140659	32.78333
1848	5.30398	3.1853599	123.9356	7.140631	32.78373
1849	5.30403	3.1854840	123.7298	7.140553	32.78520
1850	5.30398	3.1853039	123.5211	7.140651	32.78330
1851	5.30393	3.1853907	123.3065	7.140606	32.78445
1852	5.30393	3.1850554	123.1067	7.140781	32.78072
1853	5.30388	3.1848132	122.9069	7.140912	32.77811
1854	5.30398	3.1847014	122.6951	7.140954	32.77684
1855	5.30398	3.1844220	122.4863	7.141099	32.77376
1856	5.30363	3.1840557	122.2744	7.141334	32.77003
1857	5.30203	3.1836025	122.0779	7.141773	32.76653
1858	5.30048	3.1828453	121.8781	7.142369	32.75951
1859	5.29909	3.1826280	121.6663	7.142656	32.75850
1860	5.29769	3.1818150	121.4518	7.143263	32.75071
1861	5.29639	3.1801582	121.2491	7.144309	32.73318
1862	5.29499	3.1784769	121.0432	7.145380	32.71548
1863	5.29395	3.1776332	120.8345	7.145959	32.70699
1864	5.29305	3.1771804	120.6228	7.146310	32.70281
1865	5.29240	3.1767214	120.4050	7.146633	32.69832
1866	5.29150	3.1752392	120.1902	7.147535	32.68241
1867	5.29065	3.1743959	119.9875	7.148089	32.67372
1868	5.28990	3.1739246	119.7817	7.148432	32.66918
1869	5.28941	3.1737262	119.5549	7.148596	32.66752
1870	5.28886	3.1732425	119.3430	7.148919	32.66264
1871	5.28841	3.1727589	119.1282	7.149230	32.65768
1872	5.28806	3.1723684	118.9162	7.149478	32.65367
1873	5.28776	3.1717671	118.7228	7.149834	32.64720
1874	5.28716	3.1715005	118.5139	7.150048	32.64485
1875	5.28701	3.1713393	118.3021	7.150148	32.64327
1876	5.28686	3.1711595	118.0723	7.150258	32.64148
1877	5.28661	3.1710106	117.8424	7.150364	32.64014
1878	5.28636	3.1702235	117.6393	7.150812	32.63151
1879	5.28611	3.1700747	117.4337	7.150919	32.63016
1880	5.28601	3.1701924	117.2280	7.150863	32.63170
1881	5.28591	3.1699507	117.0193	7.151001	32.62915
1882	5.28556	3.1695602	116.8135	7.151249	32.62514
1883	5.28541	3.1693805	116.6138	7.151360	32.62333
1884	5.28512	3.1691945	116.4112	7.151493	32.62161
1885	5.28492	3.1690148	116.1961	7.151609	32.61986
1886	5.28432	3.1688040	115.9785	7.151793	32.61815
1887	5.28327	3.1681101	115.7699	7.152292	32.61136
1888	5.28212	3.1677817	115.5702	7.152609	32.60883
1889	5.28088	3.1674161	115.3521	7.152958	32.60599
1890	5.27943	3.1669328	115.1372	7.153395	32.60199
1891	5.27828	3.1664063	114.9347	7.153818	32.59721
1892	5.27763	3.1659974	114.7290	7.154114	32.59328
1893	5.27768	3.1657558	114.5113	7.154232	32.59059
1894	5.27803	3.1656071	114.2902	7.154263	32.58866
1895	5.27893	3.1653035	114.0904	7.154307	32.58443
1896	5.28068	3.1649752	113.8848	7.154257	32.57909
1897	5.28297	3.1646221	113.6791	7.154151	32.57293
1898	5.28522	3.1644610	113.4793	7.153948	32.56901
1899	5.28691	3.1643742	113.2674	7.153775	32.56648
1900	5.28841	3.1641636	113.0615	7.153693	32.56273
1901	5.28995	3.1639777	112.8560	7.153592	32.55921
1902	5.29115	3.1638910	112.6592	7.153482	32.55716
1903	5.29215	3.1639528	112.4445	7.153318	32.55700
1904	5.29295	3.1639218	112.2295	7.153228	32.55598
1905	5.29335	3.1637112	112.0270	7.153286	32.55329
1906	5.29390	3.1635873	111.8303	7.153278	32.55144
1907	5.29425	3.1635872	111.6184	7.153229	32.55121
1908	5.29449	3.1636676	111.4158	7.153149	32.55198
1909	5.29464	3.1635561	111.2010	7.153185	32.55067
1910	5.29464	3.1635560	110.9890	7.153180	32.55078
1911	5.29474	3.1634074	110.7894	7.153242	32.54909
1912	5.29504	3.1633763	110.5804	7.153216	32.54855
1913	5.29519	3.1634444	110.3717	7.153156	32.54928
1914	5.29549	3.1634072	110.1540	7.153133	32.54867
1915	5.29564	3.1633762	109.9479	7.153126	32.54828
1916	5.29594	3.1632275	109.7607	7.153163	32.54639
1917	5.29629	3.1632584	109.5459	7.153097	32.54651
1918	5.29654	3.1634131	109.3401	7.152978	32.54813
1919	5.29659	3.1632273	109.1220	7.153066	32.54607
1920	5.29669	3.1631034	108.9104	7.153115	32.54467
1921	5.29679	3.1630476	108.7107	7.153127	32.54404
1922	5.29694	3.1630166	108.5020	7.153120	32.54364
1923	5.29694	3.1630722	108.2931	7.153085	32.54438
1924	5.29684	3.1629979	108.0784	7.153133	32.54374
1925	5.29709	3.1629235	107.8544	7.153136	32.54276
1926	5.29719	3.1627129	107.6397	7.153231	32.54037
1927	5.29739	3.1625024	107.4457	7.153314	32.53787
1928	5.29744	3.1624713	107.2466	7.153320	32.53757
1929	5.29754	3.1624589	107.0282	7.153308	32.53744
1930	5.29759	3.1622607	106.8226	7.153403	32.53524
1931	5.29769	3.1620192	106.6346	7.153516	32.53248
1932	5.29789	3.1619634	106.4262	7.153516	32.53176
1933	5.29804	3.1620191	106.2174	7.153462	32.53235
1934	5.29799	3.1618518	105.9995	7.153553	32.53060
1935	5.29814	3.1616599	105.7998	7.153632	32.52837
1936	5.29824	3.1615360	105.5912	7.153681	32.52696
1937	5.29824	3.1614802	105.3821	7.153706	32.52643
1938	5.29824	3.1613254	105.1734	7.153784	32.52477
1939	5.29844	3.1611829	104.9616	7.153830	32.52306
1940	5.29854	3.1609353	104.7437	7.153945	32.52025
1941	5.29869	3.1607866	104.5440	7.154001	32.51851
1942	5.29869	3.1606628	104.3382	7.154062	32.51720
1943	5.29859	3.1606070	104.1233	7.154100	32.51677
1944	5.29869	3.1605141	103.9085	7.154132	32.51572
1945	5.29874	3.1603593	103.7058	7.154204	32.51401
1946	5.29918	3.1601859	103.5151	7.154235	32.51170
1947	5.30013	3.1601239	103.3124	7.154143	32.51017
1948	5.30133	3.1600929	103.1068	7.154003	32.50876
1949	5.30233	3.1597648	102.8888	7.154047	32.50416
1950	5.30328	3.1594367	102.6923	7.154098	32.49960
1951	5.30437	3.1591581	102.4922	7.154104	32.49546
1952	5.30547	3.1589229	102.2837	7.154086	32.49182
1953	5.30657	3.1587681	102.0780	7.154025	32.48910
1954	5.30732	3.1586195	101.8661	7.154004	32.48678
1955	5.30777	3.1585823	101.6543	7.153962	32.48603
1956	5.30852	3.1584090	101.4452	7.153955	32.48343
1957	5.30917	3.1582294	101.2487	7.153965	32.48086
1958	5.30981	3.1581675	101.0520	7.153911	32.47962
1959	5.31051	3.1581674	100.8343	7.153817	32.47905
1960	5.31076	3.1580436	100.6314	7.153847	32.47750
1961	5.31081	3.1581673	100.4194	7.153770	32.47897
1962	5.31101	3.1583158	100.2197	7.153660	32.48056
1963	5.31136	3.1586499	100.0233	7.153432	32.48413
1964	5.31146	3.1587117	99.8233	7.153382	32.48483
1965	5.31146	3.1590891	99.6057	7.153175	32.48924
1966	5.31146	3.1601536	99.4027	7.152600	32.50146
1967	5.31146	3.1600297	99.1908	7.152661	32.50016
1968	5.31116	3.1609953	99.0064	7.152178	32.51154
1969	5.31086	3.1623819	98.8003	7.151469	32.52772
1970	5.31011	3.1638865	98.5827	7.150753	32.54570
1971	5.30817	3.1651188	98.3525	7.150334	32.56174
1972	5.30537	3.1658744	98.1317	7.150278	32.57318
1973	5.30298	3.1659920	97.9077	7.150513	32.57696
1974	5.30108	3.1654841	97.6809	7.151020	32.57313
1975	5.29968	3.1652734	97.4416	7.151304	32.57221
1976	5.29864	3.1653477	97.2117	7.151392	32.57419
1977	5.29784	3.1651804	96.9816	7.151577	32.57317
1978	5.29719	3.1650627	96.7637	7.151717	32.57257
1979	5.29694	3.1649078	96.5367	7.151826	32.57116
1980	5.29684	3.1646972	96.3038	7.151946	32.56897
1981	5.29689	3.1646476	96.0770	7.151961	32.56847
1982	5.29704	3.1644555	95.8438	7.152040	32.56626
1983	5.29729	3.1644245	95.6197	7.152019	32.56577
1984	5.29704	3.1646350	95.3991	7.151933	32.56852
1985	5.29674	3.1641271	95.1687	7.152238	32.56314
1986	5.29694	3.1640775	94.9388	7.152234	32.56250
1987	5.29699	3.1640341	94.7211	7.152245	32.56206
1988	5.29699	3.1641578	94.4974	7.152174	32.56358
1989	5.29679	3.1638544	94.2822	7.152357	32.56043
1990	5.29664	3.1636438	94.0644	7.152483	32.55828
1991	5.29674	3.1636437	93.8374	7.152465	32.55830
1992	5.29664	3.1633092	93.6075	7.152652	32.55470
1993	5.29649	3.1631915	93.3927	7.152729	32.55361
1994	5.29644	3.1631605	93.1774	7.152747	32.55341
1995	5.29659	3.1628570	92.9507	7.152885	32.54992
1996	5.29689	3.1630675	92.7118	7.152729	32.55215
1997	5.29684	3.1630860	92.4847	7.152720	32.55252
1998	5.29654	3.1632531	92.2574	7.152663	32.55483
1999	5.29619	3.1633088	92.0307	7.152672	32.55592
2000	5.29599	3.1630982	91.7976	7.152805	32.55383
2001	5.29569	3.1631600	91.5680	7.152804	32.55494
2002	5.29559	3.1631600	91.3253	7.152811	32.55515
2003	5.29529	3.1632156	91.1046	7.152814	32.55619
2004	5.29519	3.1635499	90.8805	7.152642	32.56021
2005	5.29484	3.1636427	90.6596	7.152631	32.56172
2006	5.29469	3.1635807	90.4236	7.152678	32.56127
2007	5.29459	3.1637045	90.1906	7.152619	32.56290
2008	5.29430	3.1637230	89.9664	7.152642	32.56351
2009	5.29420	3.1640326	89.7609	7.152484	32.56724
2010	5.29395	3.1639149	89.5339	7.152573	32.56625
2011	5.29390	3.1637600	89.3038	7.152657	32.56465
2012	5.29380	3.1640014	89.0706	7.152535	32.56762
2013	5.29345	3.1641066	88.8500	7.152517	32.56927
2014	5.29340	3.1642118	88.6229	7.152462	32.57063
2015	5.29325	3.1643666	88.4079	7.152393	32.57265
2016	5.29315	3.1642117	88.1871	7.152483	32.57109
2017	5.29310	3.1643045	87.9568	7.152434	32.57231
2018	5.29290	3.1644221	87.7088	7.152391	32.57397
2019	5.29280	3.1644840	87.4485	7.152364	32.57490
2020	5.29275	3.1644529	87.2277	7.152382	32.57470
2021	5.29270	3.1647253	87.0097	7.152237	32.57797
2022	5.29285	3.1649668	86.7708	7.152083	32.58069
2023	5.29320	3.1649977	86.5344	7.152017	32.58082
2024	5.29390	3.1649976	86.3346	7.151924	32.58024
2025	5.29410	3.1650285	86.1533	7.151878	32.58049
2026	5.29415	3.1652390	85.9593	7.151754	32.58294
2027	5.29410	3.1650284	85.7625	7.151869	32.58069
2028	5.29474	3.1647249	85.5659	7.151945	32.57669
2029	5.29604	3.1647248	85.3844	7.151776	32.57552
2030	5.29679	3.1648053	85.1997	7.151634	32.57580
2031	5.29709	3.1645761	85.0032	7.151714	32.57300
2032	5.29804	3.1643345	84.8125	7.151719	32.56942
2033	5.29978	3.1640929	84.6187	7.151623	32.56506
2034	5.30143	3.1640618	84.4342	7.151427	32.56320
2035	5.30293	3.1639441	84.2406	7.151296	32.56050
2036	5.30437	3.1637273	84.0497	7.151224	32.55672
2037	5.30647	3.1636715	83.8531	7.150984	32.55414
2038	5.30857	3.1634918	83.6503	7.150810	32.55016
2039	5.31016	3.1633989	83.4686	7.150653	32.54764
2040	5.31091	3.1633988	83.2781	7.150554	32.54700
2041	5.31101	3.1632749	83.0811	7.150603	32.54559
2042	5.31151	3.1632191	82.8814	7.150565	32.54457
2043	5.31306	3.1629157	82.6848	7.150527	32.53971
2044	5.31471	3.1627670	82.4913	7.150394	32.53651
2045	5.31590	3.1626431	82.2943	7.150304	32.53404
2046	5.31670	3.1623830	82.0977	7.150337	32.53040
2047	5.31790	3.1623148	81.9070	7.150218	32.52855
2048	5.31930	3.1618938	81.7223	7.150262	32.52249
2049	5.32095	3.1618937	81.5224	7.150048	32.52099
2050	5.32254	3.1619246	81.3348	7.149825	32.51988
2051	5.32434	3.1615902	81.1471	7.149772	32.51443
2052	5.32559	3.1614415	80.9626	7.149689	32.51161
2053	5.32669	3.1612310	80.7661	7.149658	32.50825
2054	5.32814	3.1609895	80.5722	7.149600	32.50419
2055	5.32988	3.1611689	80.3875	7.149278	32.50463
2056	5.33148	3.1609584	80.1909	7.149184	32.50078
2057	5.33293	3.1608098	79.9971	7.149075	32.49778
2058	5.33438	3.1605992	79.7975	7.149000	32.49408
2059	5.33568	3.1604444	79.6038	7.148914	32.49115
2060	5.33653	3.1606548	79.4162	7.148689	32.49282
2061	5.33718	3.1601905	79.2193	7.148851	32.48700
2062	5.33767	3.1600543	79.0227	7.148856	32.48506
2063	5.33852	3.1601161	78.8199	7.148711	32.48505
2064	5.34032	3.1602336	78.6202	7.148415	32.48474
2065	5.34227	3.1604440	78.4264	7.148052	32.48534
2066	5.34367	3.1598435	78.2357	7.148191	32.47725
2067	5.34472	3.1598435	78.0360	7.148054	32.47633
2068	5.34582	3.1595773	77.8423	7.148053	32.47233
2069	5.34736	3.1592739	77.6181	7.148013	32.46749
2070	5.34901	3.1595771	77.4124	7.147638	32.46945
2071	5.35051	3.1597875	77.2218	7.147331	32.47048
2072	5.34816	3.1587972	77.0371	7.148153	32.46158
2073	5.34402	3.1586734	76.8372	7.148740	32.46429
2074	5.34477	3.1586115	76.6403	7.148673	32.46296
2075	5.34836	3.1587289	76.4560	7.148151	32.46090
2076	5.35181	3.1584937	76.2655	7.147836	32.45498
2077	5.35446	3.1586669	76.0593	7.147403	32.45449
2078	5.35681	3.1586730	75.8718	7.147098	32.45238
2079	5.35906	3.1587905	75.6751	7.146746	32.45164
2080	5.36075	3.1584934	75.4814	7.146685	32.44671
2081	5.36215	3.1581282	75.2784	7.146698	32.44130
2082	5.36355	3.1583199	75.0759	7.146414	32.44223
2083	5.36525	3.1584003	74.8760	7.146151	32.44160
2084	5.36635	3.1584002	74.6884	7.146008	32.44063
2085	5.36765	3.1580722	74.4855	7.146014	32.43574
2086	5.36905	3.1577999	74.2857	7.145977	32.43139
2087	5.36995	3.1579359	74.1012	7.145787	32.43216
2088	5.37115	3.1578616	73.9016	7.145670	32.43025
2089	5.37285	3.1577687	73.7227	7.145500	32.42764
2090	5.37435	3.1576758	73.5290	7.145355	32.42523
2091	5.37585	3.1573787	73.3262	7.145319	32.42050
2092	5.37775	3.1575890	73.1265	7.144962	32.42116
2093	5.38005	3.1576756	72.9418	7.144621	32.42001
2094	5.38125	3.1575579	72.7604	7.144527	32.41760
2095	5.38195	3.1574403	72.5603	7.144497	32.41569
2096	5.38275	3.1568091	72.3665	7.144728	32.40783
2097	5.38380	3.1568895	72.1699	7.144547	32.40783
2098	5.38555	3.1571060	71.9610	7.144205	32.40870
2099	5.38765	3.1572544	71.7705	7.143856	32.40846
2100	5.38930	3.1574399	71.5889	7.143544	32.40906
2101	5.39085	3.1573161	71.3860	7.143409	32.40626
2102	5.39220	3.1568273	71.2013	7.143495	32.39949
2103	5.39360	3.1569262	70.9954	7.143260	32.39936
2104	5.39500	3.1569570	70.8077	7.143062	32.39845
2105	5.39650	3.1568332	70.6052	7.142933	32.39570
2106	5.39850	3.1569259	70.4145	7.142627	32.39491
2107	5.40005	3.1567279	70.2208	7.142531	32.39126
2108	5.40200	3.1566226	70.0268	7.142336	32.38828
2109	5.40450	3.1567463	69.8300	7.141949	32.38737
2110	5.40650	3.1568328	69.6333	7.141645	32.38651
2111	5.40845	3.1568637	69.4456	7.141378	32.38507
2112	5.41030	3.1569502	69.2459	7.141093	32.38437
2113	5.41186	3.1568326	69.0553	7.140955	32.38163
2114	5.41356	3.1565974	68.8493	7.140860	32.37742
2115	5.41576	3.1566221	68.6589	7.140564	32.37567
2116	5.41806	3.1565972	68.4650	7.140282	32.37326
2117	5.41981	3.1566652	68.2742	7.140020	32.37244
2118	5.42156	3.1567456	68.0747	7.139751	32.37176
2119	5.42331	3.1567146	67.8685	7.139541	32.36982
2120	5.42517	3.1564732	67.6568	7.139430	32.36540
2121	5.42732	3.1562937	67.4479	7.139249	32.36139
2122	5.42872	3.1572031	67.2602	7.138583	32.37045
2123	5.42652	3.1558420	67.0725	7.139582	32.35722
2124	5.42321	3.1559038	66.8758	7.139962	32.36121
2125	5.42582	3.1559903	66.6849	7.139583	32.35977
2126	5.42987	3.1561263	66.4946	7.138993	32.35750
2127	5.43297	3.1562005	66.3035	7.138557	32.35545
2128	5.43548	3.1559653	66.1068	7.138361	32.35046
2129	5.43798	3.1560828	65.9101	7.137977	32.34948
2130	5.44083	3.1563240	65.7224	7.137484	32.34956
2131	5.44364	3.1563177	65.5318	7.137128	32.34688
2132	5.44629	3.1559897	65.3473	7.136963	32.34069
2133	5.44844	3.1557236	65.1474	7.136828	32.33570
2134	5.45115	3.1555441	64.9568	7.136577	32.33115
2135	5.45380	3.1557234	64.7657	7.136142	32.33072
2136	5.45646	3.1556491	64.5659	7.135841	32.32742
2137	5.45886	3.1556923	64.3693	7.135510	32.32570
2138	5.46171	3.1555995	64.1756	7.135194	32.32199
2139	5.46442	3.1558097	63.9819	7.134736	32.32187
2140	5.46697	3.1555436	63.7850	7.134550	32.31649
2141	5.46968	3.1556487	63.5882	7.134147	32.31517
2142	5.47254	3.1558404	63.3976	7.133680	32.31469
2143	5.47484	3.1560197	63.2070	7.133290	32.31460
2144	5.47734	3.1559887	63.0163	7.132985	32.31193
2145	5.48065	3.1561123	62.8196	7.132497	32.31025
2146	5.48331	3.1557782	62.6257	7.132335	32.30400
2147	5.48481	3.1554502	62.4350	7.132314	32.29893
2148	5.48697	3.1552398	62.2381	7.132149	32.29458
2149	5.48952	3.1550294	62.0534	7.131933	32.28982
2150	5.49178	3.1553015	61.8538	7.131500	32.29084
2151	5.49423	3.1552025	61.6752	7.131238	32.28744
2152	5.49679	3.1548498	61.4725	7.131097	32.28109
2153	5.50020	3.1547878	61.2784	7.130695	32.27721
2154	5.50501	3.1552393	61.0939	7.129844	32.27779
2155	5.50993	3.1554804	60.9062	7.129091	32.27589
2156	5.51314	3.1553010	60.7155	7.128777	32.27087
2157	5.51424	3.1548493	60.5216	7.128872	32.26479
2158	5.51564	3.1546080	60.3281	7.128818	32.26081
2159	5.51820	3.1547873	60.1373	7.128396	32.26048
2160	5.52161	3.1548862	59.9435	7.127908	32.25842
2161	5.52442	3.1550593	59.7437	7.127458	32.25778
2162	5.52658	3.1552077	59.5502	7.127102	32.25748
2163	5.52843	3.1548798	59.3474	7.127037	32.25209
2164	5.53059	3.1548487	59.1535	7.126777	32.24977
2165	5.53415	3.1548548	58.9598	7.126319	32.24651
2166	5.53661	3.1551207	58.7629	7.125864	32.24726
2167	5.53857	3.1547310	58.5751	7.125819	32.24107
2168	5.54098	3.1550896	58.3783	7.125321	32.24291
2169	5.54449	3.1550277	58.1817	7.124906	32.23894
2170	5.54770	3.1554235	57.9882	7.124287	32.24043
2171	5.55061	3.1549657	57.7819	7.124157	32.23256
2172	5.55292	3.1551202	57.5762	7.123779	32.23220
2173	5.55453	3.1552067	57.3888	7.123527	32.23173
2174	5.54800	3.1539759	57.1951	7.124996	32.22416
2175	5.53616	3.1542542	57.0071	7.126339	32.23875
2176	5.53767	3.1540068	56.8073	7.126275	32.23461
2177	5.54559	3.1537654	56.6106	7.125398	32.22437
2178	5.55373	3.1540683	56.4167	7.124207	32.22010
2179	5.56015	3.1539445	56.2139	7.123457	32.21265
2180	5.56542	3.1536166	56.0322	7.122961	32.20398
2181	5.57019	3.1538268	55.8323	7.122244	32.20188
2182	5.57386	3.1539751	55.6297	7.121699	32.20015
2183	5.57707	3.1538266	55.4358	7.121367	32.19549
2184	5.58004	3.1541234	55.2389	7.120833	32.19611
2185	5.58245	3.1541851	55.0456	7.120492	32.19459
2186	5.58350	3.1537645	54.8577	7.120576	32.18892
2187	5.58476	3.1536778	54.6547	7.120459	32.18684
2188	5.58647	3.1534056	54.4672	7.120383	32.18222
2189	5.58853	3.1537457	54.2704	7.119939	32.18419
2190	5.59043	3.1541291	54.0795	7.119492	32.18679
2191	5.59129	3.1538878	53.8888	7.119507	32.18334
2192	5.59300	3.1541537	53.6891	7.119147	32.18481
2193	5.59501	3.1544567	53.5014	7.118730	32.18640
2194	5.59767	3.1545061	53.3046	7.118363	32.18451
2195	5.60038	3.1542153	53.1169	7.118170	32.17872
2196	5.60249	3.1542771	52.9289	7.117868	32.17749
2197	5.60481	3.1543079	52.7384	7.117556	32.17572
2198	5.60747	3.1541285	52.5386	7.117310	32.17125
2199	5.61013	3.1539676	52.3569	7.117055	32.16697
2200	5.61174	3.1541840	52.1630	7.116734	32.16798
2201	5.61320	3.1542148	51.9724	7.116530	32.16702
2202	5.61420	3.1543075	51.7817	7.116350	32.16720
2203	5.61606	3.1538250	51.5849	7.116365	32.16008
2204	5.61858	3.1538992	51.3912	7.116005	32.15861
2205	5.62220	3.1540660	51.1944	7.115456	32.15713
2206	5.62532	3.1543319	51.0006	7.114919	32.15725
2207	5.62823	3.1544555	50.8128	7.114483	32.15595
2208	5.63054	3.1545977	50.6130	7.114112	32.15544
2209	5.63256	3.1542760	50.4253	7.114024	32.14998
2210	5.63457	3.1541831	50.2286	7.113815	32.14711
2211	5.63643	3.1546037	50.0377	7.113355	32.15017
2212	5.63754	3.1544861	49.8473	7.113273	32.14788
2213	5.63824	3.1543128	49.6501	7.113271	32.14535
2214	5.63904	3.1542138	49.4596	7.113217	32.14356
2215	5.63980	3.1542137	49.2689	7.113118	32.14293
2216	5.64091	3.1546033	49.0842	7.112769	32.14636
2217	5.64272	3.1544548	48.8781	7.112615	32.14306
2218	5.64397	3.1542197	48.6937	7.112576	32.13929
2219	5.64256	3.1538857	48.5059	7.112925	32.13696
2220	5.64262	3.1536444	48.3214	7.113041	32.13428
2221	5.64387	3.1540340	48.1244	7.112673	32.13757
2222	5.64332	3.1546648	47.9215	7.112407	32.14532
2223	5.63864	3.1547266	47.7276	7.112958	32.15058
2224	5.63517	3.1540957	47.5340	7.113723	32.14687
2225	5.63618	3.1539410	47.3370	7.113673	32.14426
2226	5.63784	3.1539162	47.1373	7.113473	32.14249
2227	5.63784	3.1539656	46.9407	7.113442	32.14315
2228	5.63638	3.1541264	46.7438	7.113537	32.14645
2229	5.63381	3.1542439	46.5500	7.113793	32.15032
2230	5.62979	3.1540645	46.3501	7.114390	32.15224
2231	5.62587	3.1547820	46.1625	7.114502	32.16417
2232	5.62547	3.1547881	45.9685	7.114545	32.16472
2233	5.62702	3.1545715	45.7690	7.114458	32.16088
2234	5.64347	3.1541507	45.5781	7.112604	32.14052
2235	5.69023	3.1542430	45.3875	7.106668	32.09707
2236	5.74777	3.1538836	45.1934	7.099618	32.03838
2237	5.80090	3.1535490	45.0088	7.093118	31.98431
2238	5.84136	3.1531898	44.8181	7.088225	31.94207
2239	5.87595	3.1530410	44.6243	7.083964	31.90783
2240	5.90732	3.1523789	44.4305	7.080373	31.87092
2241	5.93334	3.1516304	44.2398	7.077498	31.83813
2242	5.95669	3.1512962	44.0491	7.074744	31.81253
2243	5.97342	3.1513887	43.8523	7.072599	31.79794
2244	5.98949	3.1509681	43.6583	7.070802	31.77825
2245	6.00390	3.1506959	43.4648	7.069137	31.76179
2246	6.01648	3.1503804	43.2648	7.067722	31.74657
2247	6.02623	3.1498609	43.0650	7.066767	31.73175
2248	6.03303	3.1496815	42.8619	7.066005	31.72348
2249	6.04024	3.1490509	42.6655	7.065425	31.70979
2250	6.04699	3.1488097	42.4684	7.064701	31.70088
2251	6.05309	3.1482904	42.2686	7.064202	31.68950
2252	6.05776	3.1474621	42.0628	7.064039	31.67600
2253	6.06253	3.1470726	41.8660	7.063639	31.66730
2254	6.06802	3.1467450	41.6722	7.063117	31.65862
2255	6.07315	3.1459849	41.4753	7.062862	31.64546
2256	6.07737	3.1451877	41.2878	7.062741	31.63274
2257	6.08067	3.1447057	41.0909	7.062571	31.62439
2258	6.08296	3.1446500	40.8970	7.062309	31.62173
2259	6.08535	3.1441063	40.7094	7.062286	31.61354
2260	6.08708	3.1432044	40.5214	7.062529	31.60198
2261	6.08718	3.1424631	40.3244	7.062893	31.59374
2262	6.08657	3.1420184	40.1309	7.063193	31.58945
2263	6.08535	3.1414193	39.9371	7.063649	31.58401
2264	6.08459	3.1403633	39.7436	7.064283	31.57306
2265	6.08403	3.1395359	39.5345	7.064773	31.56448
2266	6.08362	3.1383999	39.3379	7.065403	31.55231
2267	6.08286	3.1373257	39.1470	7.066046	31.54116
2268	6.08057	3.1367085	38.9562	7.066645	31.53651
2269	6.07849	3.1362826	38.7503	7.067121	31.53381
2270	6.07722	3.1356592	38.5535	7.067596	31.52815
2271	6.07620	3.1352087	38.3506	7.067950	31.52418
2272	6.07493	3.1359553	38.1235	7.067720	31.53377
2273	6.07234	3.1330367	37.9146	7.069541	31.50381
2274	6.06980	3.1313095	37.7147	7.070743	31.48704
2275	6.06548	3.1321114	37.5207	7.070868	31.50007
2276	6.05974	3.1309517	37.3180	7.072180	31.49259
2277	6.05405	3.1297306	37.1212	7.073517	31.48438
2278	6.04973	3.1287502	36.9301	7.074559	31.47756
2279	6.04608	3.1280657	36.7395	7.075366	31.47343
2280	6.04217	3.1270238	36.5459	7.076390	31.46555
2281	6.03861	3.1265183	36.3582	7.077092	31.46331
2282	6.03607	3.1272888	36.1582	7.077010	31.47434
2283	6.03379	3.1271532	35.9707	7.077362	31.47504
2284	6.03150	3.1271100	35.7706	7.077667	31.47678
2285	6.02963	3.1268757	35.5799	7.078020	31.47601
2286	6.02810	3.1281888	35.3770	7.077530	31.49214
2287	6.02744	3.1296070	35.1802	7.076877	31.50865
2288	6.02683	3.1324996	34.9863	7.075458	31.54154
2289	6.02683	3.1350600	34.7866	7.074134	31.57016
2290	6.02475	3.1367756	34.5867	7.073507	31.59132
2291	6.01922	3.1372077	34.3898	7.073973	31.60138
2292	6.01166	3.1371151	34.1930	7.074964	31.60750
2293	6.00506	3.1385225	34.0023	7.075061	31.62944
2294	5.99776	3.1395782	33.7993	7.075427	31.64814
2295	5.98894	3.1402821	33.5997	7.076165	31.66434
2296	5.97484	3.1405786	33.4118	7.077775	31.68092
2297	5.95218	3.1411160	33.2120	7.080333	31.70823
2298	5.92767	3.1409001	33.0150	7.083516	31.72890
2299	5.91101	3.1407026	32.8211	7.085705	31.74241
2300	5.90195	3.1405791	32.6213	7.086902	31.74964
2301	5.89724	3.1404927	32.4276	7.087533	31.75318
2302	5.89340	3.1413572	32.2399	7.087563	31.76656
2303	5.88834	3.1409002	32.0523	7.088432	31.76629
2304	5.88247	3.1411163	31.8613	7.089052	31.77432
2305	5.87316	3.1417772	31.6676	7.089874	31.79056
2306	5.86224	3.1420428	31.4707	7.091103	31.80391
2307	5.84869	3.1426358	31.2709	7.092493	31.82341
2308	5.83545	3.1430003	31.0741	7.093962	31.84007
2309	5.82570	3.1433030	30.8742	7.095026	31.85275
2310	5.82014	3.1435995	30.6805	7.095565	31.86142
2311	5.81732	3.1437106	30.4804	7.095858	31.86543
2312	5.81545	3.1445260	30.2868	7.095664	31.87643
2313	5.81388	3.1452426	30.0839	7.095482	31.88605
2314	5.81383	3.1462929	29.8840	7.094937	31.89798
2315	5.81030	3.1467440	29.6842	7.095141	31.90648
2316	5.80504	3.1468305	29.4843	7.095751	31.91251
2317	5.80065	3.1461446	29.2783	7.096656	31.90907
2318	5.79727	3.1456317	29.0873	7.097345	31.90660
2319	5.79490	3.1451868	28.9059	7.097871	31.90394
2320	5.79545	3.1456378	28.7090	7.097562	31.90857
2321	5.79575	3.1465028	28.5093	7.097068	31.91809
2322	5.79596	3.1471578	28.3184	7.096696	31.92535
2323	5.79313	3.1478499	28.1276	7.096686	31.93589
2324	5.78753	3.1479117	27.9276	7.097353	31.94198
2325	5.78288	3.1482084	27.7221	7.097777	31.94981
2326	5.77824	3.1487152	27.5280	7.098091	31.96000
2327	5.77647	3.1491973	27.3310	7.098057	31.96718
2328	5.77688	3.1495866	27.1282	7.097798	31.97127
2329	5.77506	3.1495248	26.9283	7.098054	31.97240
2330	5.77128	3.1494691	26.7287	7.098554	31.97545
2331	5.76805	3.1493764	26.5286	7.099004	31.97757
2332	5.76543	3.1493145	26.3318	7.099361	31.97946
2333	5.76452	3.1489869	26.1259	7.099642	31.97674
2334	5.76225	3.1492897	25.9199	7.099765	31.98239
2335	5.76210	3.1497656	25.7200	7.099530	31.98798
2336	5.76235	3.1504889	25.5231	7.099116	31.99597
2337	5.76184	3.1510267	25.3296	7.098894	32.00259
2338	5.76189	3.1510452	25.1386	7.098873	32.00284
2339	5.76371	3.1517438	24.9418	7.098276	32.00907
2340	5.76527	3.1518055	24.7512	7.098043	32.00837
2341	5.76734	3.1521641	24.5541	7.097591	32.01054
2342	5.76941	3.1522444	24.3603	7.097285	32.00957
2343	5.77057	3.1520465	24.1755	7.097238	32.00633
2344	5.77183	3.1527637	23.9727	7.096701	32.01330
2345	5.77279	3.1533017	23.7820	7.096295	32.01853
2346	5.77380	3.1530357	23.5849	7.096303	32.01468
2347	5.77506	3.1533510	23.3882	7.095975	32.01712
2348	5.77627	3.1537220	23.1915	7.095625	32.02024
2349	5.77758	3.1539075	22.9885	7.095359	32.02117
2350	5.77870	3.1543836	22.7977	7.094967	32.02556
2351	5.77981	3.1550145	22.5918	7.094493	32.03170
2352	5.78092	3.1552866	22.3950	7.094207	32.03380
2353	5.78192	3.1553731	22.1890	7.094031	32.03392
2354	5.78359	3.1556761	21.9953	7.093659	32.03583
2355	5.78536	3.1557379	21.7982	7.093401	32.03495
2356	5.78727	3.1558554	21.6015	7.093095	32.03454
2357	5.78914	3.1562698	21.4015	7.092640	32.03752
2358	5.79066	3.1566657	21.2077	7.092239	32.04063
2359	5.79207	3.1567584	21.0048	7.092009	32.04043
2360	5.79308	3.1567274	20.8081	7.091894	32.03922
2361	5.79424	3.1564242	20.6079	7.091902	32.03480
2362	5.79575	3.1562014	20.4082	7.091824	32.03096
2363	5.79813	3.1562446	20.2205	7.091499	32.02929
2364	5.80020	3.1562755	20.0145	7.091219	32.02777
2365	5.80151	3.1560650	19.8207	7.091160	32.02425
2366	5.80272	3.1557309	19.6298	7.091178	32.01944
2367	5.80454	3.1550133	19.4299	7.091320	32.00976
2368	5.80646	3.1543513	19.2300	7.091420	32.00060
2369	5.80868	3.1536647	19.0394	7.091495	31.99088
2370	5.81080	3.1527617	18.8455	7.091695	31.97882
2371	5.81368	3.1525885	18.6397	7.091420	31.97425
2372	5.81732	3.1517103	18.4457	7.091417	31.96105
2373	5.82181	3.1505417	18.2399	7.091457	31.94377
2374	5.82555	3.1500656	18.0367	7.091232	31.93499
2375	5.82843	3.1487426	17.8369	7.091555	31.91752
2376	5.83025	3.1486993	17.6250	7.091345	31.91542
2377	5.83353	3.1475743	17.4008	7.091513	31.89981
2378	5.83808	3.1489525	17.1948	7.090220	31.91107
2379	5.83980	3.1475185	16.9980	7.090747	31.89346
2380	5.83661	3.1456647	16.8012	7.092107	31.87577
2381	5.83505	3.1436259	16.6103	7.093362	31.85448
2382	5.83606	3.1438050	16.4106	7.093137	31.85563
2383	5.84076	3.1445524	16.2137	7.092153	31.85967
2384	5.84763	3.1441322	16.0198	7.091504	31.84857
2385	5.85334	3.1437676	15.8169	7.090972	31.83920
2386	5.85754	3.1438972	15.6199	7.090373	31.83679
2387	5.86184	3.1438353	15.4260	7.089861	31.83214
2388	5.86482	3.1423713	15.2201	7.090244	31.81303
2389	5.86715	3.1421921	15.0264	7.090040	31.80892
2390	5.87099	3.1414757	14.8295	7.089926	31.79737
2391	5.87392	3.1400059	14.6324	7.090317	31.77825
2392	5.87493	3.1401602	14.4419	7.090105	31.77912
2393	5.87620	3.1396044	14.2357	7.090231	31.77180
2394	5.87772	3.1386042	14.0420	7.090555	31.75927
2395	5.87847	3.1383387	13.8420	7.090594	31.75568
2396	5.87918	3.1371720	13.6452	7.091106	31.74204
2397	5.87959	3.1374311	13.4392	7.090916	31.74467
2398	5.88121	3.1373508	13.2423	7.090750	31.74234
2399	5.88328	3.1379804	13.0454	7.090158	31.74754
2400	5.88394	3.1371408	12.8519	7.090507	31.73761
2401	5.88282	3.1352893	12.6638	7.091605	31.71802
2402	5.87999	3.1325190	12.4611	7.093396	31.68976
2403	5.87741	3.1315690	12.2551	7.094210	31.68165
2404	5.87584	3.1329076	12.0704	7.093707	31.69819
2405	5.87625	3.1318280	11.8704	7.094213	31.68582
2406	5.87933	3.1313591	11.6827	7.094064	31.67777
2407	5.88151	3.1317168	11.4798	7.093600	31.67983
2408	5.88348	3.1298726	11.2737	7.094306	31.65744
2409	5.88601	3.1293792	11.0676	7.094239	31.64965
2410	5.88773	3.1291263	10.8771	7.094149	31.64530
2411	5.89092	3.1316301	10.6711	7.092443	31.67043
2412	5.89208	3.1318274	10.4771	7.092190	31.67165
2413	5.89087	3.1326971	10.2923	7.091887	31.68261
2414	5.89057	3.1322529	10.0924	7.092151	31.67802
2415	5.89127	3.1338630	9.8895	7.091221	31.69547
2416	5.89188	3.1350970	9.6897	7.090500	31.70881
2417	5.89213	3.1356770	9.4958	7.090162	31.71515
2418	5.89249	3.1373495	9.2961	7.089245	31.73364
2419	5.89163	3.1360966	9.1112	7.089999	31.72051
2420	5.88996	3.1352572	8.9143	7.090641	31.71278
2421	5.90706	3.1337391	8.7113	7.089274	31.67985
2422	5.99964	3.1336517	8.5114	7.077690	31.59240
2423	6.11097	3.1326943	8.3238	7.064226	31.47823
2424	6.25265	3.1310705	8.1268	7.047342	31.32930
2425	6.40147	3.1288242	7.9359	7.029926	31.16799
2426	6.54450	3.1246000	7.7421	7.014263	30.99138
2427	6.68503	3.1216224	7.5422	6.998313	30.83190
2428	6.78870	3.1192313	7.3393	6.986663	30.71286
2429	6.87937	3.1181341	7.1333	6.975998	30.62005
2430	6.94527	3.1187245	6.9183	6.967575	30.56791
2431	6.98768	3.1110541	6.7064	6.966099	30.44733
2432	7.05381	3.1104935	6.5125	6.958219	30.38297
2433	7.12097	3.1097238	6.3063	6.950323	30.31564
2434	7.18857	3.1080254	6.1096	6.942834	30.23816
2435	7.23923	3.1083692	5.9034	6.936443	30.19765
2436	7.29749	3.1077474	5.7008	6.929595	30.14025
2437	7.34986	3.1066829	5.5100	6.923688	30.08337
2438	7.39364	3.1060920	5.3102	6.918609	30.03916
2439	7.41568	3.1035833	5.1069	6.917110	29.99335
2440	7.42104	3.1035709	4.9070	6.916457	29.98867
2441	7.43931	3.1032879	4.7071	6.914353	29.96994
2442	7.44194	3.1019049	4.5011	6.914689	29.95300
2443	7.43054	3.1003379	4.3073	6.916828	29.94619
2444	7.42503	3.1014072	4.1223	6.916988	29.96245
2445	7.41999	3.1093079	3.9316	6.913822	30.05131
2446	7.41847	3.1189836	3.7319	6.909378	30.15615
2447	7.37712	3.1246827	3.5411	6.911686	30.25324
2448	7.25381	3.1258981	3.3440	6.926147	30.37436
2449	7.12707	3.1261705	3.1532	6.941521	30.48904
2450	7.04049	3.1256598	2.9565	6.952386	30.56026
2451	6.97080	3.1231090	2.7594	6.962195	30.59462
2452	6.94168	3.1165619	2.5413	6.968987	30.54964
2453	6.93738	3.1132379	2.3416	6.971145	30.51751
2454	6.93510	3.1113240	2.1597	6.972363	30.49887
2455	6.93603	3.1103457	1.9656	6.972724	30.48753
2456	6.93307	3.1089308	1.7691	6.973780	30.47490
2457	6.92607	3.1090784	1.5660	6.974568	30.48280
2458	6.91808	3.1063601	1.3782	6.976887	30.46049
2459	6.91668	3.1025791	1.1904	6.978914	30.42081
2460	6.96966	3.0982281	1.0239	6.974491	30.32698
2461	7.16169	3.0973170	0.8693	6.951224	30.14877
2462	7.40540	3.0967371	0.7212	6.921559	29.93101
2463	7.67903	3.0983375	0.5936	6.887378	29.71325
2464	7.90951	3.0997175	0.4451	6.858755	29.53223
2465	8.03553	3.1134785	0.2968	6.837156	29.57060
2466	8.04997	3.1259815	0.1484	6.829637	29.68974
2467	7.44593	3.1232267	0.1029	6.903933	30.17922
2468	6.79976	3.1090239	0.1028	6.990192	30.59515
2469	6.41510	3.1021229	0.1029	7.041545	30.86521
2470	6.23378	3.0966750	0.1059	7.067066	30.96978
2471	6.20874	3.0947899	0.1029	7.071181	30.97174
2472	6.22715	1.6942656	0.1091	7.793792	16.00043
2473	6.24010	0.7106990	0.1059	8.302727	6.26140
2474	6.23857	0.5441712	0.0998	8.387836	4.70490
2475	6.23791	0.3332354	0.0970	8.493450	2.79061
2476	6.23878	0.3398951	0.1092	8.489985	2.84979
2477	6.24061	0.4558248	0.1030	8.431920	3.89405
2478	6.24291	0.3977982	0.1092	8.460432	3.36810
2479	6.24587	0.5348647	0.1033	8.391066	4.61798
2480	6.24918	0.3523288	0.1001	8.481679	2.95974
2481	6.25296	0.3113542	0.1000	8.501068	2.59541
2482	6.25709	0.3522291	0.0970	8.480084	2.95816
2483	6.26082	0.3106101	0.1032	8.499789	2.58823
2484	6.26485	0.2863654	0.0970	8.510804	2.37430
2485	6.26884	0.2826085	0.1030	8.511801	2.34104
2486	6.27256	0.2998863	0.1062	8.502584	2.49272
2487	6.27624	0.3245347	0.0999	8.489738	2.71028
2488	6.28017	0.3442750	0.1065	8.479211	2.88530
2489	6.28415	0.3994636	0.0969	8.451092	3.37902
2490	6.28798	0.3807135	0.0969	8.459597	3.21018
2491	6.29192	0.3504128	0.1001	8.473747	2.93896
2492	6.29605	0.3243971	0.1031	8.485675	2.70749
2493	6.30014	0.2840119	0.1030	8.504553	2.35120
2494	6.30402	0.3892792	0.1001	8.452043	3.28551
2495	6.30806	0.3469831	0.1063	8.472084	2.90703
2496	6.31205	0.4071335	0.1002	8.441541	3.44530
2497	6.31593	0.5102518	0.1062	8.389277	4.38234
2498	6.31992	0.5426712	0.1062	8.372176	4.67985
2499	6.32390	0.4648227	0.1031	8.410399	3.96636
2500	6.32774	0.4826308	0.1092	8.400720	4.12818
2501	6.33183	0.5631292	0.1092	8.359477	4.86697
2502	6.33582	0.6119430	0.1093	8.334034	5.31901
2503	6.33975	0.5065980	0.1032	8.386285	4.34581
2504	6.34364	0.4617291	0.1062	8.407920	3.93594
2505	6.34758	0.4182006	0.1062	8.428755	3.54140
2506	6.35172	0.4639564	0.1062	8.405163	3.95525
2507	6.35576	0.3883915	0.1093	8.441818	3.27258
2508	6.35970	0.4116724	0.1002	8.429502	3.48133
