Scan Count	Temperature [ITS-90, deg C]	Conductivity [S/m]	Depth [salt water, m]	Oxygen Saturation, Weiss [ml/l]	Salinity, Practical [PSU]
1	20.48972	0.0001477	0.0000	6.288919	0.01021
2	20.49002	0.0001539	0.0000	6.288881	0.01022
3	20.49070	0.0001601	-0.0030	6.288796	0.01023
4	20.49123	0.0001724	-0.0030	6.288729	0.01025
5	20.48398	0.0001724	-0.0060	6.289634	0.01025
6	20.46275	0.0001755	0.0001	6.292283	0.01025
7	20.44909	0.0001786	-0.0060	6.293990	0.01025
8	20.44645	0.0001755	-0.0030	6.294320	0.01024
9	20.44728	0.0001724	-0.0061	6.294217	0.01023
10	20.44871	0.0001724	-0.0061	6.294037	0.01023
11	20.44947	0.0001693	-0.0000	6.293943	0.01023
12	20.44796	0.0001539	-0.0030	6.294133	0.01020
13	20.44849	0.0001601	-0.0030	6.294067	0.01021
14	20.44177	0.0001539	-0.0031	6.294906	0.01020
15	20.41627	0.0001539	-0.0030	6.298094	0.01019
16	20.38326	0.0001539	-0.0000	6.302225	0.01018
17	20.36910	0.0001632	-0.0031	6.303998	0.01019
18	20.36669	0.0001539	-0.0031	6.304300	0.01017
19	20.35932	0.0001724	-0.0061	6.305224	0.01020
20	20.34780	0.0001786	-0.0000	6.306667	0.01021
21	20.27444	0.5032969	0.0635	6.205573	2.99993
22	18.68095	0.7762733	0.1029	6.332716	4.95018
23	16.80764	1.2762719	0.1392	6.427403	8.84982
24	15.64685	1.8667165	0.1483	6.390591	13.76229
25	14.93847	1.8177082	0.1422	6.492161	13.61122
26	14.55250	1.6061101	0.1181	6.609876	12.01537
27	14.37312	0.5642951	0.1119	6.974287	3.91373
28	14.55656	1.7089928	0.1180	6.575395	12.85265
29	14.68610	1.6055160	0.1150	6.592971	11.96958
30	14.72509	1.5906234	0.1150	6.592863	11.83727
31	14.69444	1.5613103	0.1150	6.606377	11.60972
32	14.67375	1.5606345	0.1119	6.609258	11.61041
33	14.66859	1.5897044	0.1150	6.600393	11.84693
34	14.66369	1.5905308	0.1180	6.600749	11.85510
35	14.66617	1.6062714	0.1210	6.595270	11.98179
36	14.67489	1.5680596	0.1119	6.606678	11.67004
37	14.69081	1.1000985	0.0907	6.757007	7.94905
38	14.74843	1.4881446	0.1089	6.623309	11.00547
39	14.94013	1.8392245	0.1240	6.484980	13.78614
40	15.04805	1.9712157	0.1331	6.429173	14.82676
41	15.04342	1.6182114	0.1270	6.543514	11.96302
42	14.98609	1.8083769	0.1361	6.489321	13.51879
43	14.89930	3.0624314	0.1482	6.092146	24.12348
44	14.80199	3.1000781	0.1573	6.089879	24.51179
45	14.62865	3.1055440	0.1543	6.105858	24.66880
46	14.51890	2.7900389	0.1482	6.221564	21.98403
47	14.52283	2.6259267	0.1603	6.275537	20.56503
48	14.52004	3.1776499	0.2088	6.093203	25.37265
49	14.38385	3.2063124	0.2723	6.097557	25.71557
50	14.14148	3.2038382	0.3329	6.123094	25.85487
51	13.91359	3.2018561	0.3904	6.147141	25.99018
52	13.73081	3.2012484	0.4570	6.166196	26.10845
53	13.59618	3.2046031	0.5327	6.178973	26.23053
54	13.50102	3.2096272	0.6023	6.187101	26.34132
55	13.44624	3.2085569	0.6417	6.193162	26.36932
56	13.44969	3.1944184	0.6478	6.197730	26.23857
57	13.60588	3.2001178	0.6265	6.179520	26.18330
58	14.02879	3.2080590	0.6144	6.133210	25.96806
59	14.39193	3.2201094	0.6023	6.092155	25.83240
60	14.58601	3.2256699	0.5902	6.070696	25.75283
61	14.53937	3.2249655	0.5781	6.075632	25.77748
62	14.27051	3.2207839	0.5781	6.104257	25.91941
63	14.00005	3.2230315	0.5781	6.131083	26.12151
64	13.80677	3.2301458	0.5811	6.148468	26.31698
65	13.70274	3.2342860	0.5781	6.157737	26.42571
66	13.62998	3.2260230	0.5659	6.168079	26.40110
67	13.54311	3.2191645	0.5629	6.179427	26.39883
68	13.44870	3.2140370	0.5539	6.190996	26.41744
69	13.38339	3.2145610	0.5538	6.197600	26.46739
70	13.33835	3.2192290	0.5508	6.200650	26.54116
71	13.30759	3.2236686	0.5599	6.202294	26.60307
72	13.28438	3.2246106	0.5720	6.204379	26.62785
73	13.25959	3.2239311	0.5841	6.207198	26.63895
74	13.23855	3.2232577	0.5871	6.209626	26.64751
75	13.21899	3.2217177	0.5841	6.212208	26.64711
76	13.20133	3.2186445	0.5932	6.215133	26.63134
77	13.19065	3.2166815	0.5962	6.216942	26.62085
78	13.18973	3.2161580	0.6023	6.217222	26.61670
79	13.19345	3.2156346	0.6053	6.217018	26.60931
80	13.19455	3.2163449	0.6114	6.216652	26.61504
81	13.19229	3.2187069	0.6084	6.216055	26.63823
82	13.18930	3.2193490	0.6084	6.216141	26.64620
83	13.18491	3.2208888	0.6205	6.216056	26.66336
84	13.18265	3.2245182	0.6265	6.215011	26.69816
85	13.17972	3.2194426	0.6295	6.217108	26.65375
86	13.17172	3.2150554	0.6265	6.219493	26.61919
87	13.16690	3.2159464	0.6447	6.219683	26.63072
88	13.17007	3.2194115	0.6538	6.218127	26.66021
89	13.17666	3.2247303	0.6386	6.215560	26.70429
90	13.18881	3.2295718	0.6447	6.212584	26.74009
91	13.19749	3.2275686	0.6387	6.212387	26.71567
92	13.19199	3.2188877	0.6356	6.216023	26.64009
93	13.18198	3.2169931	0.6326	6.217738	26.62976
94	13.17709	3.2164947	0.6417	6.218424	26.62861
95	13.17941	3.2175416	0.6477	6.217812	26.63656
96	13.18216	3.2200909	0.6507	6.216625	26.65797
97	13.18393	3.2235327	0.6568	6.215225	26.68823
98	13.18430	3.2262398	0.6568	6.214231	26.71276
99	13.18289	3.2250733	0.6598	6.214790	26.70306
100	13.17563	3.2178470	0.6598	6.218099	26.64200
101	13.16659	3.2152050	0.6628	6.219977	26.62414
102	13.16208	3.2153608	0.6628	6.220394	26.62872
103	13.16452	3.2184891	0.6598	6.219033	26.65565
104	13.17294	3.2228281	0.6598	6.216620	26.68948
105	13.18643	3.2275063	0.6537	6.213561	26.72285
106	13.19431	3.2318813	0.6538	6.211197	26.75737
107	13.19205	3.2353093	0.6478	6.210223	26.79034
108	13.18924	3.2498671	0.6538	6.205378	26.92566
109	13.20304	3.2598199	0.6630	6.200437	27.00709
110	13.23757	3.2713395	0.6659	6.192806	27.08811
111	13.37878	3.2726552	0.6720	6.177778	27.00003
112	13.68677	3.2662121	0.6720	6.148397	26.72539
113	14.01466	3.2620289	0.6659	6.116390	26.46110
114	14.30621	3.2553561	0.6720	6.089097	26.20296
115	14.51243	3.2528378	0.6720	6.069151	26.04186
116	14.60304	3.2507844	0.6872	6.060726	25.96317
117	14.59579	3.2496646	0.6751	6.061821	25.95811
118	14.57643	3.2488578	0.6751	6.064031	25.96390
119	14.57592	3.2500401	0.6600	6.063693	25.97469
120	14.56805	3.2537071	0.6539	6.063276	26.01235
121	14.58011	3.2505656	0.6600	6.063099	25.97653
122	14.60850	3.2400858	0.6721	6.063693	25.86510
123	14.64308	3.2361934	0.6751	6.061495	25.80784
124	14.70973	3.2332888	0.6903	6.055752	25.73820
125	14.77115	3.2278579	0.6903	6.051362	25.65003
126	14.83958	3.2189016	0.7024	6.047413	25.52664
127	14.90109	3.2114807	0.6994	6.043651	25.42161
128	14.94366	3.2092448	0.6964	6.040108	25.37445
129	14.96926	3.2078687	0.6873	6.037987	25.34585
130	14.97440	3.2067358	0.6873	6.037839	25.33264
131	14.95348	3.2064871	0.6873	6.040015	25.34401
132	14.91045	3.2113249	0.6964	6.042764	25.41417
133	14.86792	3.2164147	0.6964	6.045378	25.48637
134	14.81087	3.2181041	0.6964	6.050552	25.53840
135	14.74614	3.2177994	0.6965	6.057155	25.57809
136	14.69584	3.2178000	0.7055	6.062215	25.61108
137	14.67343	3.2168467	0.7298	6.064785	25.61741
138	14.64938	3.2150088	0.7267	6.067811	25.61704
139	14.58963	3.2154705	0.7298	6.073688	25.66042
140	14.52790	3.2176584	0.7207	6.079204	25.72048
141	14.47387	3.2198280	0.7086	6.083951	25.77545
142	14.44457	3.2208133	0.7087	6.086590	25.80361
143	14.42554	3.2212437	0.7177	6.088374	25.82006
144	14.40248	3.2202901	0.7209	6.091027	25.82695
145	14.38662	3.2188503	0.7268	6.093113	25.82473
146	14.36378	3.2201970	0.7329	6.094983	25.85188
147	14.33167	3.2203220	0.7420	6.098199	25.87440
148	14.31409	3.2198920	0.7571	6.100128	25.88231
149	14.29670	3.2199546	0.7542	6.101874	25.89447
150	14.27580	3.2205720	0.7512	6.103792	25.91394
151	14.26038	3.2205098	0.7451	6.105381	25.92370
152	14.26825	3.2204473	0.7300	6.104602	25.91789
153	14.29916	3.2212450	0.7361	6.101193	25.90431
154	14.28839	3.2213075	0.7481	6.102267	25.91206
155	14.26472	3.2199861	0.7482	6.105114	25.91614
156	14.26095	3.2205409	0.7512	6.105313	25.92360
157	14.25673	3.2214325	0.7634	6.105443	25.93435
158	14.24887	3.2221372	0.7664	6.106007	25.94588
159	14.23403	3.2215824	0.7786	6.107703	25.95088
160	14.20336	3.2200491	0.7816	6.111338	25.95779
161	14.16952	3.2216455	0.7816	6.114250	25.99474
162	14.15772	3.2219760	0.7695	6.115341	26.00562
163	14.19105	3.2231231	0.7695	6.111560	25.99345
164	14.24138	3.2246007	0.7816	6.105944	25.97282
165	14.24000	3.2233970	0.7817	6.106488	25.96303
166	14.21454	3.2219256	0.7817	6.109571	25.96700
167	14.21272	3.2235220	0.7726	6.109221	25.98245
168	14.21134	3.2251561	0.7636	6.108813	25.99794
169	14.23334	3.2271210	0.7757	6.105918	26.00067
170	14.25390	3.2285435	0.7848	6.103353	25.99952
171	14.24522	3.2266904	0.7969	6.104855	25.98885
172	14.24824	3.2244135	0.7940	6.105310	25.96656
173	14.30061	3.2252113	0.7940	6.099723	25.93858
174	14.30949	3.2269393	0.7880	6.098245	25.94799
175	14.28228	3.2275885	0.7940	6.100790	25.97199
176	14.25264	3.2265718	0.7971	6.104140	25.98281
177	14.24258	3.2257048	0.7850	6.105453	25.98185
178	14.25962	3.2256422	0.7759	6.103741	25.96986
179	14.26592	3.2270333	0.7729	6.102637	25.97802
180	14.23554	3.2310089	0.7790	6.104393	26.03381
181	14.21360	3.2352986	0.7881	6.105184	26.08680
182	14.21008	3.2362854	0.8033	6.105211	26.09796
183	14.21819	3.2340308	0.8033	6.105143	26.07240
184	14.24730	3.2328005	0.8033	6.102599	26.04185
185	14.27133	3.2332310	0.7913	6.100016	26.02954
186	14.27611	3.2365970	0.8003	6.098406	26.05627
187	14.29399	3.2379586	0.7943	6.096139	26.05637
188	14.29758	3.2361970	0.7974	6.096364	26.03828
189	14.29998	3.2343110	0.7914	6.096750	26.01990
190	14.30961	3.2344982	0.7762	6.095711	26.01510
191	14.30942	3.2386707	0.7762	6.094338	26.05233
192	14.30401	3.2428453	0.7854	6.093494	26.09310
193	14.29790	3.2431891	0.8066	6.093998	26.10027
194	14.28889	3.2440832	0.8036	6.094612	26.11429
195	14.28725	3.2442708	0.8036	6.094715	26.11706
196	14.29154	3.2449835	0.7946	6.094043	26.12052
197	14.30061	3.2467217	0.7885	6.092545	26.12988
198	14.31692	3.2481788	0.7976	6.090409	26.13184
199	14.32871	3.2491732	0.7977	6.088887	26.13274
200	14.33703	3.2499801	0.7977	6.087777	26.13430
201	14.34643	3.2502616	0.7947	6.086734	26.13047
202	14.35829	3.2510373	0.7917	6.085279	26.12938
203	14.36895	3.2526203	0.7947	6.083676	26.13626
204	14.37627	3.2539283	0.7948	6.082503	26.14295
205	14.38145	3.2547983	0.8009	6.081692	26.14719
206	14.38454	3.2555745	0.7979	6.081122	26.15200
207	14.38662	3.2558561	0.7979	6.080818	26.15309
208	14.39155	3.2557935	0.7949	6.080343	26.14922
209	14.39641	3.2569141	0.7828	6.079480	26.15590
210	14.40045	3.2574714	0.7889	6.078888	26.15812
211	14.40494	3.2585296	0.7829	6.078085	26.16450
212	14.40898	3.2575652	0.7859	6.077998	26.15321
213	14.40898	3.2560124	0.7920	6.078513	26.13942
214	14.40696	3.2561314	0.8012	6.078677	26.14184
215	14.40551	3.2565258	0.7982	6.078693	26.14632
216	14.40450	3.2572835	0.7951	6.078543	26.15373
217	14.41012	3.2576278	0.7983	6.077863	26.15299
218	14.41840	3.2582226	0.7922	6.076832	26.15270
219	14.42004	3.2588739	0.7892	6.076450	26.15737
220	14.41941	3.2584042	0.7953	6.076670	26.15363
221	14.41593	3.2587800	0.8014	6.076895	26.15930
222	14.41170	3.2597132	0.7984	6.077012	26.17044
223	14.41221	3.2594376	0.7894	6.077052	26.16766
224	14.41429	3.2597758	0.7833	6.076730	26.16926
225	14.41480	3.2594940	0.7924	6.076773	26.16641
226	14.41271	3.2596819	0.7894	6.076920	26.16948
227	14.41037	3.2601203	0.7834	6.077010	26.17495
228	14.41006	3.2592497	0.7804	6.077331	26.16744
229	14.39824	3.2568828	0.7865	6.079306	26.15439
230	14.36163	3.2554808	0.7986	6.083463	26.16661
231	14.30212	3.2557318	0.7926	6.089387	26.20904
232	14.24969	3.2570409	0.7866	6.094248	26.25620
233	14.23510	3.2568532	0.7776	6.095786	26.26442
234	14.21731	3.2548939	0.7867	6.098242	26.25901
235	14.13678	3.2554519	0.7897	6.106215	26.31873
236	14.06857	3.2578193	0.7867	6.112339	26.38643
237	14.06500	3.2588087	0.7776	6.112367	26.39774
238	14.07777	3.2593472	0.7777	6.110889	26.39383
239	14.09185	3.2594097	0.7747	6.109439	26.38477
240	14.11083	3.2594095	0.7899	6.107514	26.37181
241	14.12919	3.2597162	0.7930	6.105549	26.36202
242	14.16086	3.2586261	0.7899	6.102706	26.33070
243	14.24572	3.2598715	0.7718	6.093702	26.28413
244	14.39603	3.2611791	0.7718	6.078102	26.19403
245	14.47500	3.2601197	0.7810	6.070509	26.13143
246	14.51015	3.2549534	0.7719	6.068683	26.06208
247	14.52150	3.2466568	0.7750	6.070281	25.98107
248	14.51776	3.2409867	0.7780	6.072528	25.93341
249	14.45488	3.2373072	0.7751	6.080085	25.94279
250	14.37255	3.2337232	0.7811	6.089596	25.96605
251	14.29128	3.2302032	0.7812	6.099003	25.98921
252	14.21297	3.2284815	0.7752	6.107533	26.02647
253	14.15484	3.2272154	0.7783	6.113874	26.05431
254	14.10337	3.2253382	0.7783	6.119751	26.07224
255	14.06525	3.2237979	0.7784	6.124162	26.08421
256	14.03779	3.2234303	0.7754	6.127091	26.09948
257	14.00985	3.2233682	0.7754	6.129969	26.11782
258	13.98300	3.2229382	0.7663	6.132861	26.13216
259	13.97332	3.2224768	0.7542	6.134008	26.13458
260	13.96297	3.2224458	0.7603	6.135079	26.14133
261	13.94195	3.2220469	0.7665	6.137368	26.15200
262	13.92162	3.2209435	0.7725	6.139826	26.15589
263	13.90187	3.2197405	0.7696	6.142261	26.15850
264	13.87716	3.2190052	0.7635	6.145049	26.16869
265	13.85681	3.2178399	0.7575	6.147536	26.17205
266	13.84518	3.2168242	0.7454	6.149078	26.17083
267	13.83908	3.2164878	0.7576	6.149819	26.17195
268	13.83281	3.2161202	0.7515	6.150590	26.17291
269	13.82603	3.2147994	0.7455	6.151738	26.16564
270	13.81161	3.2143448	0.7396	6.153377	26.17136
271	13.79391	3.2142515	0.7366	6.155231	26.18257
272	13.78143	3.2138841	0.7396	6.156642	26.18776
273	13.77119	3.2136350	0.7457	6.157783	26.19249
274	13.76834	3.2139714	0.7488	6.157962	26.19747
275	13.77181	3.2136039	0.7518	6.157730	26.19179
276	13.75698	3.2127195	0.7519	6.159561	26.19392
277	13.73770	3.2119848	0.7610	6.161802	26.20045
278	13.72344	3.2112189	0.7550	6.163536	26.20327
279	13.70912	3.2101543	0.7520	6.165379	26.20343
280	13.68485	3.2095008	0.7521	6.168111	26.21411
281	13.66845	3.2089530	0.7521	6.169995	26.22036
282	13.66084	3.2089531	0.7460	6.170782	26.22557
283	13.65527	3.2084614	0.7401	6.171527	26.22493
284	13.64945	3.2080008	0.7340	6.172287	26.22475
285	13.64389	3.2072103	0.7431	6.173135	26.22140
286	13.63795	3.2066253	0.7553	6.173951	26.22017
287	13.63319	3.2060465	0.7675	6.174644	26.21819
288	13.62732	3.2052189	0.7524	6.175537	26.21473
289	13.61107	3.2047897	0.7464	6.177369	26.22196
290	13.59760	3.2048209	0.7434	6.178753	26.23146
291	13.58754	3.2043357	0.7464	6.179964	26.23395
292	13.58723	3.2041552	0.7525	6.180058	26.23253
293	13.57939	3.2033838	0.7313	6.181138	26.23092
294	13.55841	3.2026561	0.7223	6.183566	26.23870
295	13.54077	3.2022271	0.7284	6.185545	26.24690
296	13.52751	3.2019535	0.7224	6.187016	26.25351
297	13.51519	3.2023766	0.7285	6.188150	26.26579
298	13.50724	3.2018604	0.7285	6.189155	26.26657
299	13.49474	3.2010954	0.7407	6.190720	26.26821
300	13.47707	3.2005794	0.7468	6.192736	26.27565
301	13.46328	3.2008843	0.7468	6.194064	26.28789
302	13.45276	3.2003371	0.7499	6.195349	26.29015
303	13.44077	3.1999951	0.7288	6.196716	26.29530
304	13.42805	3.2000575	0.7227	6.198019	26.30462
305	13.41870	3.1999394	0.7137	6.199033	26.30998
306	13.41575	3.1998772	0.7198	6.199362	26.31144
307	13.41618	3.2000327	0.7319	6.199263	26.31255
308	13.41496	3.1997840	0.7441	6.199478	26.31114
309	13.40826	3.1995104	0.7350	6.200271	26.31326
310	13.40052	3.1992369	0.7442	6.201174	26.31610
311	13.38455	3.1992681	0.7472	6.202827	26.32738
312	13.36860	3.1998466	0.7412	6.204288	26.34365
313	13.35958	3.1997721	0.7412	6.205255	26.34919
314	13.34528	3.1997287	0.7352	6.206761	26.35866
315	13.32493	3.2000337	0.7353	6.208779	26.37550
316	13.30936	3.2008237	0.7415	6.210127	26.39346
317	13.28750	3.2015579	0.7354	6.212152	26.41528
318	13.26534	3.2022610	0.7294	6.214220	26.43705
319	13.23549	3.2020187	0.7385	6.217426	26.45554
320	13.20243	3.2018636	0.7416	6.220940	26.47709
321	13.17312	3.2023802	0.7507	6.223826	26.50219
322	13.16062	3.2026292	0.7568	6.225049	26.51318
323	13.16159	3.2025358	0.7720	6.224979	26.51164
324	13.16165	3.2020942	0.7690	6.225129	26.50756
325	13.14329	3.2027786	0.7539	6.226811	26.52662
326	13.12384	3.2040667	0.7419	6.228393	26.55198
327	13.10294	3.2047950	0.7358	6.230326	26.57325
328	13.09923	3.2058031	0.7298	6.230358	26.58509
329	13.08778	3.2061455	0.7359	6.231438	26.59623
330	13.07189	3.2052869	0.7451	6.233409	26.59947
331	13.06197	3.2063574	0.7693	6.234070	26.61623
332	13.05862	3.2071541	0.7694	6.234139	26.62588
333	13.04810	3.2070298	0.7694	6.235287	26.63211
334	13.05576	3.2074592	0.7755	6.234330	26.63068
335	13.04682	3.2079199	0.7755	6.235105	26.64118
336	13.01649	3.2076463	0.7847	6.238388	26.65994
337	12.99935	3.2077337	0.7847	6.240156	26.67278
338	13.00761	3.2100308	0.7908	6.238470	26.68809
339	13.00336	3.2103983	0.7758	6.238786	26.69446
340	12.98860	3.2106101	0.7607	6.240260	26.70679
341	12.97883	3.2109154	0.7637	6.241178	26.71647
342	12.98344	3.2103985	0.7728	6.240878	26.70847
343	12.99389	3.2108280	0.7819	6.239628	26.70507
344	12.98994	3.2123289	0.7820	6.239507	26.72165
345	12.97221	3.2136745	0.7911	6.240889	26.74651
346	12.96560	3.2138926	0.7912	6.241506	26.75318
347	12.95067	3.2128463	0.7973	6.243448	26.75407
348	12.93266	3.2122050	0.8064	6.245571	26.76086
349	12.92375	3.2126348	0.8065	6.246355	26.77111
350	12.91975	3.2124792	0.7913	6.246831	26.77251
351	12.90363	3.2125229	0.7763	6.248511	26.78430
352	12.90242	3.2132454	0.7612	6.248380	26.79182
353	12.90714	3.2144414	0.7582	6.247454	26.79950
354	12.90611	3.2156688	0.7704	6.247123	26.81154
355	12.90842	3.2145972	0.7946	6.247265	26.80003
356	12.92490	3.2126660	0.8128	6.246223	26.77058
357	12.96153	3.2142602	0.8129	6.241802	26.75942
358	12.98156	3.2150575	0.8130	6.239414	26.75263
359	12.97464	3.2152382	0.8009	6.240076	26.75918
360	12.94303	3.2146591	0.7949	6.243604	26.77615
361	12.91478	3.2132765	0.7919	6.247069	26.78336
362	12.89848	3.2126039	0.7890	6.249024	26.78868
363	12.88655	3.2126975	0.7859	6.250246	26.79798
364	12.88146	3.2122366	0.7799	6.250947	26.79732
365	12.88600	3.2125729	0.7769	6.250348	26.79722
366	12.89836	3.2135570	0.7861	6.248696	26.79755
367	12.90484	3.2130087	0.8012	6.248210	26.78791
368	12.90866	3.2123921	0.8012	6.248029	26.77953
369	12.93017	3.2138619	0.7953	6.245240	26.77788
370	12.94976	3.2147525	0.7953	6.242863	26.77226
371	12.94297	3.2151762	0.7984	6.243425	26.78095
372	12.92884	3.2141360	0.8106	6.245283	26.78134
373	12.91666	3.2130024	0.8077	6.246969	26.77950
374	12.91957	3.2139803	0.7894	6.246313	26.78647
375	12.93369	3.2146904	0.7835	6.244574	26.78303
376	12.92387	3.2153633	0.7865	6.245366	26.79617
377	12.90866	3.2162545	0.7896	6.246646	26.81513
378	12.90508	3.2158246	0.8018	6.247176	26.81370
379	12.91211	3.2140427	0.8018	6.247075	26.79230
380	12.94236	3.2134942	0.8110	6.244090	26.76589
381	12.97537	3.2139237	0.8019	6.240469	26.74657
382	12.97840	3.2143223	0.8050	6.240008	26.74810
383	12.96153	3.2136248	0.8080	6.242029	26.75357
384	12.94485	3.2130332	0.7991	6.243994	26.75989
385	12.94521	3.2136125	0.7901	6.243748	26.76497
386	12.94661	3.2142915	0.7931	6.243359	26.77024
387	12.93630	3.2148399	0.7931	6.244247	26.78257
388	12.93017	3.2140114	0.7963	6.245187	26.77926
389	12.93909	3.2126347	0.7902	6.244742	26.76029
390	12.96123	3.2129396	0.7872	6.242305	26.74749
391	12.98004	3.2135561	0.7904	6.240109	26.73990
392	12.98271	3.2142600	0.7965	6.239577	26.74449
393	12.97840	3.2144096	0.7995	6.239977	26.74890
394	12.97682	3.2138302	0.7906	6.240349	26.74469
395	12.98569	3.2137055	0.7936	6.239463	26.73730
396	12.98988	3.2137989	0.8028	6.238990	26.73520
397	12.99735	3.2137989	0.8058	6.238206	26.72994
398	13.00919	3.2137364	0.8028	6.236984	26.72103
399	13.01235	3.2127834	0.8029	6.236992	26.71005
400	13.00039	3.2127586	0.7908	6.238257	26.71824
401	12.99559	3.2131261	0.7908	6.238630	26.72500
402	12.99522	3.2141976	0.7908	6.238286	26.73511
403	12.99018	3.2154561	0.7941	6.238367	26.75023
404	12.98733	3.2152381	0.8031	6.238744	26.75023
405	12.98860	3.2153627	0.8123	6.238566	26.75048
406	12.99711	3.2153314	0.8032	6.237685	26.74420
407	13.00865	3.2154871	0.8063	6.236418	26.73751
408	13.01880	3.2157923	0.8064	6.235245	26.73317
409	13.02396	3.2157611	0.7973	6.234714	26.72925
410	13.02268	3.2152065	0.8004	6.235046	26.72505
411	13.02098	3.2153623	0.8035	6.235169	26.72768
412	13.02360	3.2180044	0.8006	6.233954	26.75012
413	13.02980	3.2190764	0.8006	6.232923	26.75560
414	13.03417	3.2173873	0.7977	6.233065	26.73700
415	13.03740	3.2155179	0.7916	6.233392	26.71756
416	13.04001	3.2165398	0.7886	6.232754	26.72511
417	13.04372	3.2205537	0.7857	6.230938	26.75937
418	13.04451	3.2211023	0.7948	6.230661	26.76385
419	13.04263	3.2213829	0.8161	6.230759	26.76775
420	13.04177	3.2207034	0.8191	6.231089	26.76211
421	13.04530	3.2192009	0.8131	6.231254	26.74583
422	13.04871	3.2187396	0.7950	6.231061	26.73920
423	13.05777	3.2197805	0.7891	6.229742	26.74238
424	13.06958	3.2211021	0.7891	6.228036	26.74621
425	13.07572	3.2220248	0.8042	6.227066	26.75035
426	13.07901	3.2220871	0.8073	6.226700	26.74861
427	13.08139	3.2211331	0.8104	6.226790	26.73818
428	13.08741	3.2211019	0.8014	6.226170	26.73366
429	13.09107	3.2225484	0.8075	6.225275	26.74436
430	13.08967	3.2230411	0.8136	6.225247	26.74986
431	13.08711	3.2218750	0.8136	6.225928	26.74096
432	13.08735	3.2207029	0.8107	6.226318	26.73004
433	13.08936	3.2207028	0.7926	6.226108	26.72863
434	13.09959	3.2211329	0.7896	6.224885	26.72538
435	13.10928	3.2221803	0.7867	6.223501	26.72819
436	13.11092	3.2228850	0.7958	6.223080	26.73349
437	13.11184	3.2230097	0.8080	6.222940	26.73399
438	13.11543	3.2227353	0.8050	6.222662	26.72894
439	13.12043	3.2224047	0.7990	6.222256	26.72240
440	13.12500	3.2223672	0.7960	6.221792	26.71885
441	13.12768	3.2227039	0.8022	6.221392	26.72005
442	13.12902	3.2234710	0.8082	6.220981	26.72614
443	13.13000	3.2236893	0.8144	6.220802	26.72745
444	13.13104	3.2228848	0.8084	6.220978	26.71935
445	13.13067	3.2224857	0.8024	6.221158	26.71595
446	13.12866	3.2229783	0.8024	6.221193	26.72188
447	13.12848	3.2233774	0.8056	6.221071	26.72567
448	13.13018	3.2232901	0.8086	6.220924	26.72367
449	13.13232	3.2230095	0.7996	6.220800	26.71960
450	13.13512	3.2228286	0.7997	6.220571	26.71597
451	13.13939	3.2236268	0.7936	6.219843	26.72029
452	13.14317	3.2244563	0.7997	6.219155	26.72524
453	13.14439	3.2247619	0.8058	6.218919	26.72718
454	13.14408	3.2249178	0.8181	6.218896	26.72882
455	13.14390	3.2247931	0.8272	6.218960	26.72780
456	13.14530	3.2239947	0.8181	6.219095	26.71950
457	13.14805	3.2229781	0.8091	6.219168	26.70826
458	13.15000	3.2224855	0.7940	6.219138	26.70239
459	13.15793	3.2227972	0.7729	6.218200	26.69969
460	13.16751	3.2240880	0.7820	6.216744	26.70479
461	13.17087	3.2248552	0.7821	6.216123	26.70946
462	13.17190	3.2253791	0.8034	6.215830	26.71352
463	13.17197	3.2254727	0.8095	6.215790	26.71433
464	13.16897	3.2253168	0.8125	6.216157	26.71500
465	13.16922	3.2250361	0.8186	6.216231	26.71226
466	13.17258	3.2250735	0.8188	6.215868	26.71024
467	13.17453	3.2250111	0.8127	6.215686	26.70830
468	13.17471	3.2244559	0.8097	6.215863	26.70309
469	13.17441	3.2240880	0.8098	6.216025	26.69994
470	13.17282	3.2242377	0.8069	6.216137	26.70242
471	13.17105	3.2242127	0.8069	6.216331	26.70344
472	13.16995	3.2240880	0.8009	6.216489	26.70307
473	13.16836	3.2244560	0.8493	6.216526	26.70753
474	13.12415	3.2139782	0.9523	6.224854	26.64251
475	12.97519	3.2059601	1.0947	6.243334	26.67335
476	12.79094	3.2075243	1.2795	6.262193	26.81772
477	12.63071	3.2095742	1.4794	6.278406	26.95061
478	12.44927	3.2150633	1.6702	6.295668	27.13180
479	12.29499	3.2161678	1.8761	6.311700	27.25366
480	12.19593	3.2164431	2.0820	6.322185	27.32824
481	12.18149	3.2121821	2.2940	6.325315	27.29864
482	12.16582	3.2139327	2.5090	6.326346	27.32645
483	12.13668	3.2161697	2.7271	6.328638	27.36869
484	12.06633	3.2198539	2.9482	6.334806	27.45484
485	12.02627	3.2184270	3.1843	6.339642	27.47071
486	11.98335	3.2217627	3.4448	6.343004	27.53371
487	11.93057	3.2212084	3.6961	6.348888	27.56732
488	11.85514	3.2265043	3.9777	6.355012	27.67325
489	11.73131	3.2321163	4.2624	6.366232	27.81874
490	11.60204	3.2331978	4.5531	6.379786	27.92590
491	11.57614	3.2299895	4.8408	6.383821	27.91460
492	11.59560	3.2290345	5.1345	6.382084	27.89074
493	11.64094	3.2275864	5.4011	6.377735	27.84280
494	11.69248	3.2299261	5.6826	6.371276	27.82640
495	11.68662	3.2339404	5.9734	6.370384	27.86894
496	11.62297	3.2413564	6.2549	6.374429	27.98745
497	11.36546	3.2511332	6.5336	6.398530	28.27656
498	11.02560	3.2542410	6.7880	6.434298	28.56842
499	10.77180	3.2552703	7.0817	6.461691	28.77660
500	10.60438	3.2555539	7.3876	6.480006	28.91129
501	10.50521	3.2553985	7.6571	6.491019	28.98831
502	10.44121	3.2586051	7.9266	6.496800	29.07081
503	10.27174	3.2626285	8.1870	6.513937	29.24636
504	10.02936	3.2643293	8.4595	6.540203	29.45940
505	9.84663	3.2636295	8.7170	6.560924	29.60163
506	9.74701	3.2654417	8.9894	6.571337	29.70168
507	9.67354	3.2656306	9.2409	6.579514	29.76417
508	9.68882	3.2628544	9.4891	6.578973	29.72342
509	9.77575	3.2629475	9.7526	6.569174	29.65259
510	9.67220	3.2675051	10.0039	6.578884	29.78388
511	9.38356	3.2688876	10.2493	6.610837	30.03833
512	9.05787	3.2675118	10.5006	6.648407	30.29931
513	8.76139	3.2638609	10.7580	6.683923	30.51530
514	8.51765	3.2617771	11.0002	6.712916	30.70447
515	8.33116	3.2620298	11.2425	6.734383	30.86992
516	8.19575	3.2612795	11.4967	6.750451	30.98105
517	8.09121	3.2602220	11.7421	6.763113	31.06224
518	8.00936	3.2584756	11.9995	6.773474	31.11632
519	7.94007	3.2577938	12.2448	6.781897	31.17068
520	7.88194	3.2559912	12.4840	6.789547	31.20332
521	7.84102	3.2573692	12.7112	6.793708	31.25445
522	7.80603	3.2554914	12.9656	6.798696	31.26572
523	7.75899	3.2519806	13.2138	6.805870	31.27040
524	7.70112	3.2514494	13.4501	6.812936	31.31661
525	7.65025	3.2495606	13.6893	6.819827	31.34212
526	7.60124	3.2477284	13.9344	6.826482	31.36660
527	7.55128	3.2446898	14.1677	6.833831	31.37906
528	7.49928	3.2440090	14.4099	6.840317	31.41867
529	7.44651	3.2410968	14.6583	6.847966	31.43509
530	7.40235	3.2392726	14.9157	6.854086	31.45542
531	7.36443	3.2406666	15.1519	6.857934	31.50477
532	7.33708	3.2405732	15.3791	6.861239	31.52856
533	7.31508	3.2380367	15.6213	6.865078	31.52114
534	7.29126	3.2358694	15.8757	6.868962	31.51934
535	7.26312	3.2338027	16.1210	6.873318	31.52257
536	7.23296	3.2348834	16.3450	6.876405	31.56166
537	7.20783	3.2316120	16.6054	6.880990	31.54913
538	7.18820	3.2298833	16.8810	6.884178	31.54823
539	7.16822	3.2298835	17.1142	6.886575	31.56640
540	7.15085	3.2301023	17.3564	6.888555	31.58454
541	7.13713	3.2287419	17.6138	6.890861	31.58224
542	7.12363	3.2277874	17.8742	6.892947	31.58413
543	7.10795	3.2288797	18.1044	6.894303	31.61023
544	7.09196	3.2281873	18.3406	6.896562	31.61727
545	7.08009	3.2266213	18.5919	6.898753	31.61105
546	7.07332	3.2267088	18.8343	6.899528	31.61810
547	7.06624	3.2267402	19.0643	6.900367	31.62482
548	7.05916	3.2262786	19.2793	6.901446	31.62621
549	7.04923	3.2257548	19.5035	6.902899	31.62954
550	7.03950	3.2242517	19.7396	6.904805	31.62203
551	7.02868	3.2224932	19.9819	6.906967	31.61274
552	7.01205	3.2215705	20.2211	6.909423	31.61787
553	6.99184	3.2218826	20.4391	6.911709	31.63973
554	6.97298	3.2214214	20.6723	6.914209	31.65194
555	6.95622	3.2208356	20.8994	6.916521	31.66089
556	6.94485	3.2208358	21.1327	6.917896	31.67124
557	6.93966	3.2216340	21.3536	6.918135	31.68461
558	6.93899	3.2230496	21.5716	6.917528	31.70055
559	6.93852	3.2232368	21.8018	6.917498	31.70291
560	6.93556	3.2227130	22.0289	6.918115	31.69983
561	6.93032	3.2224388	22.2590	6.918886	31.70156
562	6.92405	3.2228380	22.4923	6.919452	31.71159
563	6.92156	3.2224078	22.7193	6.919968	31.70909
564	6.91886	3.2220961	22.9465	6.920450	31.70807
565	6.91373	3.2227136	23.1737	6.920772	31.71943
566	6.90906	3.2228384	23.3947	6.921278	31.72500
567	6.90460	3.2224083	23.6157	6.922031	31.72432
568	6.89880	3.2219158	23.8368	6.922978	31.72420
569	6.89082	3.2206315	24.0790	6.924576	31.71745
570	6.87833	3.2205943	24.3002	6.926107	31.72847
571	6.86642	3.2210871	24.5122	6.927308	31.74475
572	6.85570	3.2194227	24.7483	6.929426	31.73637
573	6.84441	3.2191798	24.9876	6.930914	31.74404
574	6.83096	3.2191800	25.2085	6.932545	31.75638
575	6.81668	3.2166623	25.4478	6.935518	31.74196
576	6.80137	3.2144506	25.7082	6.938467	31.73182
577	6.78922	3.2161705	25.9385	6.939095	31.76176
578	6.77893	3.2165383	26.1716	6.940164	31.77520
579	6.77072	3.2158032	26.4047	6.941527	31.77466
580	6.76426	3.2158656	26.6288	6.942283	31.78122
581	6.75909	3.2151617	26.8468	6.943262	31.77820
582	6.75377	3.2147631	27.0678	6.944109	31.77866
583	6.74824	3.2145451	27.2980	6.944891	31.78129
584	6.73864	3.2134427	27.5281	6.946606	31.77801
585	6.72986	3.2127701	27.7584	6.948009	31.77867
586	6.72413	3.2132312	27.9824	6.948481	31.78893
587	6.71676	3.2125648	28.1975	6.949711	31.78837
588	6.70515	3.2116993	28.4155	6.951554	31.78955
589	6.69101	3.2097380	28.6517	6.954249	31.78105
590	6.67632	3.2083623	28.8879	6.956723	31.77949
591	6.66240	3.2075346	29.1210	6.958832	31.78321
592	6.64699	3.2066136	29.3451	6.961170	31.78730
593	6.63391	3.2059416	29.5723	6.963102	31.79197
594	6.62294	3.2053630	29.7963	6.964731	31.79570
595	6.61496	3.2047844	30.0204	6.965996	31.79665
596	6.60498	3.2038015	30.2476	6.967708	31.79502
597	6.59592	3.2031297	30.4716	6.969153	31.79595
598	6.58826	3.2030427	30.6988	6.970136	31.80201
599	6.58105	3.2029122	30.9289	6.971085	31.80717
600	6.57499	3.2027071	31.1591	6.971932	31.81045
601	6.56964	3.2028254	31.3891	6.972531	31.81662
602	6.56558	3.2033170	31.6254	6.972786	31.82569
603	6.56444	3.2031616	31.8584	6.973007	31.82493
604	6.56172	3.2026142	32.0887	6.973618	31.82133
605	6.55858	3.2026454	32.3189	6.973990	31.82449
606	6.55617	3.2028570	32.5489	6.974184	31.82895
607	6.55565	3.2025833	32.7730	6.974389	31.82632
608	6.55488	3.2022786	33.0032	6.974640	31.82357
609	6.55411	3.2022787	33.2333	6.974739	31.82418
610	6.55118	3.2019802	33.4575	6.975251	31.82352
611	6.54707	3.2017874	33.6664	6.975854	31.82512
612	6.54358	3.2014828	33.8874	6.976438	31.82492
613	6.53726	3.1996232	34.1207	6.978146	31.81022
614	6.52123	3.1963592	34.3568	6.981745	31.78909
615	6.49412	3.1926802	34.6264	6.986914	31.77366
616	6.46467	3.1921586	34.8746	6.990791	31.79521
617	6.44011	3.1924634	35.0987	6.993655	31.82136
618	6.42289	3.1921592	35.3319	6.995926	31.83396
619	6.41049	3.1916748	35.5560	6.997697	31.84008
620	6.40352	3.1917495	35.7801	6.998520	31.84730
621	6.39886	3.1914327	36.0072	6.999257	31.84805
622	6.39353	3.1910663	36.2193	7.000100	31.84887
623	6.38908	3.1910975	36.4494	7.000637	31.85327
624	6.38678	3.1908864	36.6704	7.001031	31.85298
625	6.38611	3.1906131	36.9005	7.001256	31.85048
626	6.38447	3.1903647	37.1216	7.001587	31.84915
627	6.38278	3.1905822	37.3489	7.001690	31.85303
628	6.37981	3.1900791	37.5729	7.002314	31.85014
629	6.37623	3.1902780	37.8000	7.002658	31.85558
630	6.37342	3.1903092	38.0150	7.002993	31.85845
631	6.37290	3.1908249	38.2301	7.002801	31.86453
632	6.37628	3.1911914	38.4510	7.002205	31.86532
633	6.37961	3.1913716	38.6752	7.001710	31.86409
634	6.38115	3.1912474	38.8963	7.001589	31.86118
635	6.37884	3.1906698	39.1082	7.002168	31.85684
636	6.37301	3.1900797	39.3263	7.003188	31.85567
637	6.36508	3.1893345	39.5413	7.004544	31.85474
638	6.35873	3.1888502	39.7503	7.005574	31.85521
639	6.35249	3.1883348	39.9713	7.006607	31.85524
640	6.34175	3.1872979	40.1863	7.008458	31.85371
641	6.32953	3.1860252	40.4045	7.010611	31.85095
642	6.31833	3.1850507	40.6195	7.012489	31.85053
643	6.30648	3.1841135	40.8314	7.014429	31.85114
644	6.29289	3.1833812	41.0464	7.016481	31.85565
645	6.28247	3.1832014	41.2494	7.017862	31.86331
646	6.27920	3.1841450	41.4584	7.017790	31.87673
647	6.28155	3.1853866	41.6582	7.016875	31.88820
648	6.28461	3.1853556	41.8642	7.016517	31.88488
649	6.28318	3.1849025	42.0701	7.016928	31.88110
650	6.27833	3.1835680	42.2790	7.018208	31.87075
651	6.27123	3.1825378	42.4881	7.019612	31.86588
652	6.26455	3.1821346	42.7031	7.020647	31.86757
653	6.25909	3.1812349	42.9303	7.021783	31.86260
654	6.25587	3.1814770	43.1453	7.022062	31.86820
655	6.25398	3.1813840	43.3572	7.022347	31.86883
656	6.25199	3.1813531	43.5631	7.022613	31.87026
657	6.25072	3.1812601	43.7781	7.022823	31.87032
658	6.24980	3.1811422	43.9841	7.023000	31.86977
659	6.24760	3.1808259	44.1870	7.023437	31.86822
660	6.24296	3.1803234	44.3869	7.024270	31.86690
661	6.23832	3.1793867	44.5899	7.025325	31.86076
662	6.23419	3.1789029	44.8080	7.026087	31.85916
663	6.23031	3.1788720	45.0198	7.026586	31.86235
664	6.22786	3.1789279	45.2228	7.026865	31.86517
665	6.22557	3.1788783	45.4197	7.027178	31.86667
666	6.22337	3.1788102	45.6256	7.027489	31.86787
667	6.22087	3.1785994	45.8315	7.027909	31.86778
668	6.21924	3.1781714	46.0406	7.028334	31.86446
669	6.21929	3.1780226	46.2495	7.028408	31.86266
670	6.22006	3.1777808	46.4677	7.028441	31.85915
671	6.21965	3.1776568	46.6856	7.028560	31.85805
672	6.21863	3.1777251	46.8976	7.028656	31.85967
673	6.21618	3.1777190	47.1035	7.028966	31.86179
674	6.21307	3.1773593	47.3246	7.029539	31.86061
675	6.21057	3.1771486	47.5366	7.029960	31.86051
676	6.20848	3.1769316	47.7456	7.030334	31.85996
677	6.20568	3.1769317	47.9636	7.030686	31.86248
678	6.20553	3.1770868	48.1968	7.030630	31.86424
679	6.20894	3.1778869	48.4149	7.029805	31.86982
680	6.21628	3.1795680	48.6419	7.028045	31.88149
681	6.22602	3.1804738	48.8602	7.026385	31.88231
682	6.23454	3.1807779	49.0902	7.025182	31.87758
683	6.24061	3.1810509	49.3114	7.024298	31.87482
684	6.24648	3.1816280	49.5446	7.023285	31.87561
685	6.25327	3.1824782	49.7686	7.022020	31.87857
686	6.25919	3.1827451	49.9806	7.021158	31.87588
687	6.26286	3.1831113	50.2077	7.020523	31.87639
688	6.26766	3.1836016	50.4410	7.019687	31.87722
689	6.27307	3.1838748	50.6772	7.018885	31.87507
690	6.27654	3.1838438	50.9255	7.018478	31.87135
691	6.27782	3.1838128	51.1738	7.018342	31.86969
692	6.27792	3.1839308	51.4191	7.018275	31.87079
693	6.27583	3.1837695	51.6463	7.018620	31.87085
694	6.27307	3.1836331	51.8945	7.019035	31.87180
695	6.27011	3.1833849	52.1278	7.019531	31.87171
696	6.26638	3.1830871	52.3672	7.020148	31.87179
697	6.26154	3.1826279	52.6094	7.020985	31.87113
698	6.25449	3.1819020	52.8516	7.022229	31.86956
699	6.24510	3.1813560	53.0999	7.023671	31.87218
700	6.23653	3.1810211	53.3483	7.024906	31.87638
701	6.22684	3.1802643	53.5935	7.026494	31.87695
702	6.21455	3.1792346	53.8510	7.028544	31.87692
703	6.20018	3.1782361	54.0961	7.030837	31.87919
704	6.18173	3.1768160	54.3476	7.033850	31.88060
705	6.16227	3.1753342	54.5959	7.037022	31.88227
706	6.14115	3.1731893	54.8624	7.040744	31.87813
707	6.11550	3.1711193	55.1198	7.044992	31.87906
708	6.08753	3.1695022	55.3742	7.049301	31.88721
709	6.06314	3.1688396	55.6225	7.052679	31.90264
710	6.04405	3.1683875	55.8800	7.055293	31.91545
711	6.02998	3.1683258	56.1252	7.057080	31.92789
712	6.02186	3.1681277	56.3888	7.058199	31.93320
713	6.01679	3.1669074	56.6492	7.059466	31.92424
714	6.00694	3.1650123	56.9126	7.061674	31.91223
715	5.99330	3.1645604	57.1730	7.063614	31.91992
716	5.98138	3.1642572	57.4396	7.065263	31.92763
717	5.97012	3.1637744	57.7061	7.066922	31.93272
718	5.96014	3.1632297	57.9725	7.068455	31.93593
719	5.95001	3.1623878	58.2300	7.070161	31.93595
720	5.93992	3.1616079	58.4963	7.071830	31.93662
721	5.93060	3.1612181	58.7569	7.073201	31.94093
722	5.92367	3.1608592	59.0265	7.074260	31.94333
723	5.91693	3.1604013	59.2777	7.075345	31.94444
724	5.91055	3.1601663	59.5291	7.076269	31.94771
725	5.90534	3.1599250	59.7925	7.077052	31.94981
726	5.90200	3.1598942	60.0561	7.077492	31.95249
727	5.90058	3.1599871	60.2951	7.077626	31.95476
728	5.89947	3.1594859	60.5619	7.078031	31.95007
729	5.89507	3.1590218	60.8373	7.078829	31.94890
730	5.89041	3.1589910	61.1129	7.079434	31.95282
731	5.88657	3.1590221	61.3733	7.079904	31.95667
732	5.88272	3.1588737	61.6367	7.080469	31.95852
733	5.87969	3.1584344	61.8882	7.081082	31.95635
734	5.87382	3.1573393	62.1425	7.082391	31.94950
735	5.86421	3.1558979	62.4091	7.084349	31.94230
736	5.85243	3.1553599	62.6694	7.086110	31.94728
737	5.84162	3.1549395	62.9268	7.087691	31.95267
738	5.83353	3.1548221	63.1873	7.088771	31.95888
739	5.82838	3.1547851	63.4538	7.089443	31.96321
740	5.82585	3.1550574	63.7141	7.089624	31.96852
741	5.82525	3.1552369	63.9716	7.089612	31.97099
742	5.82464	3.1552370	64.2260	7.089694	31.97144
743	5.82408	3.1552989	64.4863	7.089737	31.97253
744	5.82287	3.1552990	64.7469	7.089895	31.97355
745	5.82312	3.1552991	64.9952	7.089869	31.97320
746	5.82282	3.1551754	65.2526	7.089977	31.97197
747	5.82136	3.1548786	65.5011	7.090321	31.96991
748	5.81676	3.1541551	65.7584	7.091280	31.96602
749	5.80797	3.1537965	66.0159	7.092576	31.97018
750	5.79954	3.1537101	66.2671	7.093685	31.97708
751	5.79288	3.1534690	66.5214	7.094653	31.98056
752	5.78833	3.1532589	66.7728	7.095339	31.98238
753	5.78334	3.1526715	67.0303	7.096278	31.98039
754	5.77602	3.1522388	67.2787	7.097429	31.98235
755	5.76699	3.1519051	67.5330	7.098744	31.98703
756	5.75846	3.1515775	67.7904	7.099992	31.99131
757	5.75120	3.1509903	68.0539	7.101218	31.99147
758	5.74419	3.1505020	68.3083	7.102361	31.99250
759	5.73643	3.1499025	68.5535	7.103657	31.99300
760	5.72962	3.1495132	68.8048	7.104722	31.99496
761	5.72418	3.1492414	69.0502	7.105555	31.99695
762	5.72015	3.1491240	69.3015	7.106130	31.99933
763	5.71652	3.1489387	69.5500	7.106689	32.00057
764	5.71279	3.1486730	69.8013	7.107304	32.00099
765	5.70841	3.1481911	70.0497	7.108114	31.99961
766	5.70488	3.1481788	70.3040	7.108570	32.00270
767	5.70211	3.1477463	70.5795	7.109152	32.00032
768	5.69879	3.1476228	70.8368	7.109642	32.00196
769	5.69471	3.1475920	71.0823	7.110177	32.00537
770	5.69048	3.1476539	71.3336	7.110683	32.00996
771	5.68695	3.1478951	71.5758	7.111007	32.01591
772	5.68504	3.1486430	71.8213	7.110861	32.02603
773	5.68514	3.1494528	72.0635	7.110429	32.03493
774	5.68741	3.1504111	72.3088	7.109646	32.04345
775	5.69189	3.1511839	72.5541	7.108682	32.04777
776	5.69602	3.1514313	72.7965	7.108038	32.04651
777	5.69864	3.1516106	73.0448	7.107620	32.04592
778	5.70000	3.1516416	73.2838	7.107438	32.04486
779	5.70156	3.1517901	73.5291	7.107169	32.04492
780	5.70267	3.1518829	73.7685	7.106986	32.04480
781	5.70292	3.1518829	73.9985	7.106960	32.04445
782	5.70322	3.1518521	74.2470	7.106943	32.04369
783	5.70282	3.1517594	74.4863	7.107048	32.04292
784	5.70196	3.1517039	74.7316	7.107191	32.04298
785	5.70075	3.1515988	74.9769	7.107403	32.04283
786	5.69985	3.1515495	75.2132	7.107549	32.04302
787	5.69879	3.1514321	75.4524	7.107749	32.04259
788	5.69703	3.1513394	75.6945	7.108025	32.04310
789	5.69501	3.1512158	75.9339	7.108349	32.04351
790	5.69269	3.1510737	76.1762	7.108720	32.04400
791	5.69103	3.1509811	76.4215	7.108984	32.04441
792	5.68992	3.1508637	76.6607	7.109190	32.04403
793	5.68559	3.1498128	76.8910	7.110292	32.03620
794	5.67668	3.1487807	77.1362	7.111962	32.03293
795	5.66657	3.1481072	77.3756	7.113597	32.03484
796	5.65675	3.1475944	77.6148	7.115109	32.03828
797	5.64795	3.1473844	77.8419	7.116335	32.04418
798	5.63960	3.1470138	78.0782	7.117589	32.04783
799	5.63190	3.1467915	78.3024	7.118682	32.05253
800	5.62381	3.1462169	78.5355	7.120012	32.05365
801	5.61290	3.1458587	78.7626	7.121583	32.05988
802	5.60154	3.1457106	79.0018	7.123101	32.06891
803	5.59194	3.1455872	79.2411	7.124384	32.07655
804	5.58466	3.1454453	79.4985	7.125385	32.08176
805	5.57969	3.1453527	79.7590	7.126068	32.08533
806	5.57506	3.1452911	79.9892	7.126690	32.08893
807	5.57049	3.1452417	80.2222	7.127299	32.09262
808	5.56633	3.1452357	80.4646	7.127835	32.09641
809	5.56301	3.1452605	80.7009	7.128246	32.09973
810	5.55995	3.1450258	80.9341	7.128763	32.09989
811	5.55553	3.1446120	81.1763	7.129546	32.09931
812	5.55127	3.1448469	81.4125	7.129967	32.10592
813	5.54730	3.1446926	81.6486	7.130555	32.10785
814	5.54193	3.1441861	81.8729	7.131508	32.10714
815	5.53350	3.1429014	82.1031	7.133259	32.10055
816	5.52221	3.1417714	82.3332	7.135292	32.09844
817	5.51238	3.1415245	82.5663	7.136673	32.10492
818	5.50566	3.1419137	82.7965	7.137324	32.11563
819	5.50331	3.1422473	83.0359	7.137451	32.12154
820	5.50200	3.1426859	83.2723	7.137389	32.12763
821	5.50486	3.1439769	83.5143	7.136348	32.13939
822	5.50907	3.1443106	83.7445	7.135643	32.13902
823	5.51143	3.1442488	83.9839	7.135383	32.13595
824	5.51173	3.1438535	84.2140	7.135560	32.13108
825	5.50882	3.1433224	84.4533	7.136215	32.12774
826	5.50466	3.1433225	84.6865	7.136748	32.13160
827	5.50135	3.1437983	84.9195	7.136920	32.14003
828	5.49930	3.1439528	85.1528	7.137104	32.14363
829	5.49799	3.1441258	85.3981	7.137183	32.14672
830	5.49814	3.1443668	85.6374	7.137041	32.14919
831	5.49819	3.1443978	85.8767	7.137024	32.14937
832	5.49814	3.1444535	86.1130	7.137006	32.14993
833	5.49834	3.1446389	86.3583	7.136888	32.15172
834	5.49905	3.1449046	86.5944	7.136664	32.15394
835	5.49930	3.1450282	86.8367	7.136572	32.15498
836	5.49885	3.1450592	87.0729	7.136618	32.15565
837	5.49684	3.1448678	87.3093	7.136979	32.15528
838	5.49338	3.1448185	87.5423	7.137449	32.15792
839	5.48997	3.1447877	87.7848	7.137902	32.16071
840	5.48707	3.1447569	88.0271	7.138293	32.16303
841	5.48231	3.1436697	88.2754	7.139478	32.15515
842	5.47434	3.1431757	88.5298	7.140756	32.15706
843	5.46542	3.1422741	88.7872	7.142371	32.15526
844	5.45100	3.1404217	89.0356	7.145191	32.14796
845	5.43242	3.1395390	89.2778	7.148024	32.15562
846	5.41721	3.1392923	89.5201	7.150093	32.16728
847	5.40640	3.1392925	89.7623	7.151472	32.17752
848	5.40045	3.1404225	90.0140	7.151631	32.19593
849	5.40005	3.1416515	90.2621	7.151033	32.21014
850	5.40315	3.1424853	90.5043	7.150200	32.21651
851	5.40650	3.1432636	90.7496	7.149366	32.22200
852	5.40990	3.1437454	90.9982	7.148683	32.22408
853	5.41136	3.1438320	91.2496	7.148458	32.22355
854	5.41010	3.1439556	91.4917	7.148557	32.22603
855	5.40805	3.1441287	91.7400	7.148731	32.22984
856	5.40455	3.1436840	91.9852	7.149418	32.22804
857	5.39795	3.1439498	92.1762	7.150119	32.23730
858	5.39235	3.1473358	92.2914	7.149027	32.28108
859	5.39075	3.1477808	92.3430	7.148994	32.28764
860	5.40340	3.1479599	92.3585	7.147294	32.27749
861	5.42106	3.1485036	92.3617	7.144765	32.26668
862	5.43297	3.1490722	92.3831	7.142954	32.26167
863	5.44193	3.1496099	92.4105	7.141533	32.25914
864	5.44969	3.1502094	92.4348	7.140232	32.25847
865	5.45621	3.1506607	92.4562	7.139169	32.25732
866	5.46121	3.1507163	92.4715	7.138506	32.25313
867	5.46492	3.1508770	92.4899	7.137951	32.25139
868	5.46998	3.1511675	92.4991	7.137157	32.24982
869	5.47554	3.1515261	92.5175	7.136264	32.24853
870	5.47990	3.1519156	92.5329	7.135506	32.24875
871	5.48356	3.1522185	92.5543	7.134883	32.24866
872	5.48742	3.1524288	92.5574	7.134283	32.24734
873	5.49113	3.1526699	92.5758	7.133687	32.24650
874	5.49418	3.1529358	92.5852	7.133160	32.24657
875	5.49624	3.1532388	92.6065	7.132740	32.24802
876	5.49739	3.1535975	92.6156	7.132404	32.25097
877	5.49845	3.1533006	92.6160	7.132428	32.24660
878	5.50085	3.1519772	92.5587	7.132824	32.22934
879	5.50842	3.1517978	92.4348	7.131959	32.22011
880	5.50431	3.1513773	92.2807	7.132698	32.21937
881	5.49674	3.1511300	92.1356	7.133783	32.22390
882	5.49263	3.1511671	91.9996	7.134280	32.22832
883	5.49108	3.1512908	91.8638	7.134408	32.23128
884	5.48972	3.1515010	91.7367	7.134465	32.23502
885	5.48822	3.1514391	91.5885	7.134684	32.23584
886	5.48802	3.1511608	91.4405	7.134854	32.23295
887	5.48907	3.1512906	91.2984	7.134649	32.23348
888	5.49243	3.1517666	91.1504	7.133968	32.23572
889	5.49915	3.1520695	91.0085	7.132955	32.23278
890	5.50556	3.1521745	90.8571	7.132085	32.22789
891	5.51103	3.1529660	90.7000	7.130971	32.23168
892	5.51604	3.1539863	90.5520	7.129794	32.23849
893	5.51996	3.1547656	90.4009	7.128883	32.24363
894	5.52236	3.1551614	90.2467	7.128366	32.24588
895	5.52352	3.1553407	90.0987	7.128122	32.24688
896	5.52322	3.1555510	89.9536	7.128046	32.24961
897	5.52337	3.1555819	89.7995	7.128007	32.24990
898	5.52241	3.1555818	89.6514	7.128124	32.25088
899	5.51434	3.1555509	89.4943	7.129156	32.25836
900	5.50301	3.1553716	89.3340	7.130679	32.26728
901	5.49193	3.1548583	89.1798	7.132347	32.27219
902	5.48331	3.1542583	89.0194	7.133751	32.27375
903	5.47459	3.1539553	88.8655	7.135010	32.27877
904	5.46798	3.1532379	88.6993	7.136224	32.27708
905	5.46126	3.1518589	88.5452	7.137802	32.26797
906	5.45465	3.1515003	88.3968	7.138825	32.27033
907	5.45065	3.1513766	88.2369	7.139394	32.27286
908	5.44714	3.1506285	88.0735	7.140232	32.26783
909	5.44223	3.1500227	87.9164	7.141172	32.26575
910	5.43753	3.1495467	87.7500	7.142017	32.26496
911	5.43312	3.1491016	87.5839	7.142808	32.26423
912	5.42887	3.1485020	87.4298	7.143662	32.26159
913	5.42467	3.1477789	87.2787	7.144577	32.25750
914	5.42196	3.1472350	87.1245	7.145205	32.25400
915	5.42111	3.1471238	86.9552	7.145368	32.25364
916	5.42211	3.1471793	86.7920	7.145208	32.25339
917	5.42517	3.1466416	86.6378	7.145104	32.24444
918	5.42717	3.1462893	86.4837	7.145034	32.23859
919	5.42967	3.1463449	86.3204	7.144683	32.23690
920	5.43287	3.1462830	86.1603	7.144306	32.23320
921	5.43623	3.1463447	86.0001	7.143845	32.23076
922	5.43998	3.1464126	85.8277	7.143329	32.22801
923	5.44253	3.1463445	85.6735	7.143038	32.22486
924	5.44609	3.1463444	85.5073	7.142583	32.22153
925	5.45030	3.1464618	85.3469	7.141984	32.21890
926	5.45470	3.1465235	85.1869	7.141389	32.21545
927	5.45981	3.1465419	85.0266	7.140729	32.21084
928	5.46437	3.1465542	84.8603	7.140141	32.20669
929	5.46848	3.1464058	84.7002	7.139696	32.20115
930	5.47354	3.1462512	84.5339	7.139133	32.19463
931	5.47850	3.1463191	84.3705	7.138465	32.19072
932	5.48221	3.1464920	84.2013	7.137900	32.18921
933	5.48541	3.1466711	84.0320	7.137395	32.18825
934	5.48757	3.1465845	83.8659	7.137164	32.18529
935	5.48917	3.1463435	83.6934	7.137085	32.18111
936	5.49022	3.1460344	83.5273	7.137111	32.17668
937	5.49113	3.1458614	83.3668	7.137085	32.17394
938	5.49183	3.1457439	83.1977	7.137055	32.17202
939	5.49253	3.1455647	83.0253	7.137057	32.16940
940	5.49308	3.1453731	82.8592	7.137085	32.16679
941	5.49388	3.1453854	82.6929	7.136973	32.16624
942	5.49489	3.1453544	82.5296	7.136859	32.16501
943	5.49539	3.1453853	82.3634	7.136775	32.16496
944	5.49644	3.1452431	82.1940	7.136713	32.16243
945	5.49804	3.1451133	82.0309	7.136575	32.15950
946	5.49940	3.1450576	81.8674	7.136430	32.15766
947	5.50115	3.1449031	81.6953	7.136285	32.15431
948	5.50316	3.1450266	81.5230	7.135962	32.15388
949	5.50411	3.1451810	81.3506	7.135756	32.15480
950	5.50421	3.1452056	81.1783	7.135726	32.15507
951	5.50361	3.1450573	80.9938	7.135876	32.15405
952	5.50236	3.1448163	80.8153	7.136159	32.15261
953	5.50105	3.1442356	80.6340	7.136628	32.14738
954	5.50020	3.1437660	80.4556	7.136980	32.14297
955	5.50175	3.1435312	80.2714	7.136904	32.13891
956	5.50501	3.1435311	80.0868	7.136487	32.13589
957	5.50842	3.1435681	79.9084	7.136031	32.13313
958	5.51138	3.1435866	79.7240	7.135643	32.13060
959	5.51484	3.1436791	79.5425	7.135151	32.12843
960	5.51880	3.1438582	79.3610	7.134551	32.12676
961	5.52257	3.1439816	79.1769	7.134005	32.12465
962	5.52628	3.1440989	78.9893	7.133469	32.12252
963	5.52984	3.1456804	78.7897	7.132176	32.13710
964	5.53285	3.1444879	78.5902	7.132422	32.12084
965	5.53556	3.1438577	78.3967	7.132408	32.11122
966	5.53857	3.1439194	78.2183	7.131990	32.10913
967	5.54258	3.1442158	78.0310	7.131321	32.10874
968	5.54625	3.1443640	77.8554	7.130775	32.10700
969	5.54911	3.1446048	77.6679	7.130282	32.10708
970	5.55112	3.1447716	77.4866	7.129935	32.10714
971	5.55237	3.1448148	77.3051	7.129750	32.10652
972	5.55322	3.1451112	77.1206	7.129481	32.10915
973	5.55363	3.1456796	76.9392	7.129126	32.11527
974	5.55463	3.1465075	76.7487	7.128557	32.12377
975	5.55588	3.1467917	76.5763	7.128244	32.12586
976	5.55694	3.1478670	76.3890	7.127538	32.13710
977	5.55729	3.1504136	76.2015	7.126144	32.16564
978	5.55704	3.1527198	76.0201	7.124953	32.19204
979	5.55854	3.1542597	75.8326	7.123945	32.20810
980	5.56196	3.1545503	75.6481	7.123356	32.20820
981	5.56954	3.1541605	75.4607	7.122601	32.19663
982	5.58230	3.1535914	75.2792	7.121288	32.17808
983	5.59174	3.1532325	75.0828	7.120282	32.16510
984	5.59400	3.1529603	74.8953	7.120136	32.15996
985	5.59295	3.1526943	74.7139	7.120405	32.15805
986	5.59094	3.1525088	74.5266	7.120752	32.15797
987	5.58888	3.1524222	74.3328	7.121053	32.15905
988	5.58647	3.1522614	74.1424	7.121438	32.15963
989	5.58541	3.1521500	73.9427	7.121625	32.15948
990	5.58395	3.1521500	73.7462	7.121804	32.16097
991	5.58190	3.1520943	73.5558	7.122089	32.16240
992	5.57943	3.1518531	73.3562	7.122523	32.16213
993	5.57758	3.1514079	73.1625	7.122988	32.15897
994	5.57753	3.1511914	72.9662	7.123104	32.15667
995	5.57923	3.1511604	72.7666	7.122900	32.15479
996	5.57838	3.1509502	72.5729	7.123114	32.15332
997	5.57773	3.1509192	72.3734	7.123208	32.15369
998	5.57763	3.1510242	72.1767	7.123161	32.15507
999	5.57522	3.1505296	71.9743	7.123722	32.15189
1000	5.57386	3.1500844	71.7837	7.124124	32.14825
1001	5.57456	3.1496640	71.5934	7.124253	32.14292
1002	5.57250	3.1490953	71.3908	7.124808	32.13856
1003	5.56834	3.1485822	71.1971	7.125601	32.13684
1004	5.56357	3.1483721	70.9944	7.126310	32.13912
1005	5.55900	3.1483411	70.8071	7.126899	32.14323
1006	5.55488	3.1484647	70.6013	7.127349	32.14866
1007	5.55127	3.1485574	70.4077	7.127753	32.15326
1008	5.54841	3.1484956	70.2141	7.128142	32.15539
1009	5.54635	3.1484028	70.0207	7.128447	32.15641
1010	5.54504	3.1484337	69.8271	7.128591	32.15810
1011	5.54364	3.1484646	69.6306	7.128748	32.15989
1012	5.54223	3.1485511	69.4430	7.128875	32.16230
1013	5.54138	3.1486437	69.2496	7.128930	32.16426
1014	5.54058	3.1487611	69.0561	7.128965	32.16645
1015	5.53942	3.1487302	68.8655	7.129122	32.16730
1016	5.53837	3.1487177	68.6720	7.129258	32.16827
1017	5.53867	3.1487300	68.4814	7.129209	32.16821
1018	5.53787	3.1487053	68.2698	7.129319	32.16880
1019	5.53561	3.1487609	68.0671	7.129570	32.17169
1020	5.53165	3.1491255	67.8858	7.129874	32.17970
1021	5.52899	3.1489710	67.6953	7.130287	32.18059
1022	5.53029	3.1490327	67.5047	7.130085	32.18013
1023	5.53014	3.1490945	67.3264	7.130067	32.18106
1024	5.52853	3.1489152	67.1449	7.130361	32.18066
1025	5.53139	3.1489398	66.9604	7.129982	32.17829
1026	5.53220	3.1489707	66.7819	7.129860	32.17796
1027	5.53104	3.1489706	66.5975	7.130002	32.17916
1028	5.53069	3.1490324	66.4161	7.130010	32.18028
1029	5.52994	3.1490941	66.2375	7.130068	32.18179
1030	5.52853	3.1490632	66.0533	7.130258	32.18287
1031	5.52808	3.1490631	65.8839	7.130311	32.18339
1032	5.52748	3.1490322	65.7087	7.130399	32.18370
1033	5.52738	3.1489394	65.5301	7.130457	32.18284
1034	5.52879	3.1490012	65.3577	7.130243	32.18227
1035	5.52889	3.1490011	65.1913	7.130226	32.18226
1036	5.52889	3.1489702	65.0160	7.130239	32.18199
1037	5.52979	3.1490628	64.8467	7.130072	32.18226
1038	5.53054	3.1490937	64.6683	7.129956	32.18198
1039	5.53159	3.1491492	64.4960	7.129789	32.18168
1040	5.53250	3.1491492	64.3355	7.129672	32.18090
1041	5.53425	3.1492109	64.1724	7.129413	32.17999
1042	5.53731	3.1493592	63.9969	7.128944	32.17883
1043	5.54238	3.1495074	63.8246	7.128221	32.17574
1044	5.54805	3.1496001	63.6643	7.127452	32.17144
1045	5.55352	3.1496618	63.4979	7.126725	32.16698
1046	5.55925	3.1497791	63.3256	7.125936	32.16292
1047	5.56527	3.1498532	63.1713	7.125132	32.15807
1048	5.57150	3.1498716	62.9992	7.124333	32.15241
1049	5.57682	3.1499890	62.8387	7.123595	32.14873
1050	5.58129	3.1500198	62.6724	7.123011	32.14489
1051	5.58692	3.1500197	62.5123	7.122297	32.13959
1052	5.59255	3.1501061	62.3459	7.121537	32.13527
1053	5.59656	3.1501369	62.1825	7.121010	32.13186
1054	5.59968	3.1502296	62.0133	7.120565	32.13002
1055	5.60264	3.1502604	61.8438	7.120170	32.12762
1056	5.60601	3.1502665	61.6777	7.119739	32.12455
1057	5.60898	3.1503777	61.5265	7.119302	32.12305
1058	5.61159	3.1505260	61.3540	7.118891	32.12232
1059	5.61431	3.1506805	61.1877	7.118463	32.12155
1060	5.61808	3.1507051	61.0214	7.117971	32.11831
1061	5.62185	3.1507359	60.8581	7.117476	32.11514
1062	5.62547	3.1507668	60.6979	7.116999	32.11212
1063	5.62813	3.1506801	60.5315	7.116705	32.10868
1064	5.63044	3.1507048	60.3712	7.116397	32.10683
1065	5.63306	3.1508964	60.2049	7.115963	32.10658
1066	5.63628	3.1509767	60.0416	7.115511	32.10449
1067	5.63909	3.1509766	59.8782	7.115152	32.10189
1068	5.64171	3.1508591	59.7181	7.114881	32.09815
1069	5.64453	3.1505869	59.5517	7.114665	32.09248
1070	5.64719	3.1506116	59.3885	7.114312	32.09029
1071	5.65006	3.1505559	59.1919	7.113976	32.08703
1072	5.65333	3.1505558	59.0163	7.113560	32.08400
1073	5.65575	3.1507041	58.8440	7.113174	32.08345
1074	5.65615	3.1502898	58.6837	7.113337	32.07848
1075	5.65645	3.1501970	58.5204	7.113344	32.07723
1076	5.65927	3.1501351	58.3509	7.113018	32.07393
1077	5.66319	3.1501041	58.1818	7.112536	32.06992
1078	5.66631	3.1500484	58.0154	7.112168	32.06641
1079	5.66938	3.1501040	57.8462	7.111748	32.06419
1080	5.67170	3.1502275	57.6767	7.111388	32.06346
1081	5.67422	3.1502584	57.5015	7.111051	32.06150
1082	5.67714	3.1504066	57.3290	7.110601	32.06048
1083	5.68021	3.1505859	57.1594	7.110116	32.05966
1084	5.68287	3.1507032	56.9962	7.109715	32.05852
1085	5.68554	3.1507341	56.8301	7.109359	32.05641
1086	5.68877	3.1507031	56.6485	7.108966	32.05309
1087	5.69214	3.1508576	56.4791	7.108456	32.05170
1088	5.69526	3.1510553	56.3157	7.107955	32.05104
1089	5.69828	3.1510367	56.1525	7.107581	32.04803
1090	5.70236	3.1509129	55.9803	7.107129	32.04284
1091	5.70629	3.1508263	55.7956	7.106675	32.03822
1092	5.71007	3.1509128	55.6295	7.106151	32.03569
1093	5.71340	3.1511167	55.4478	7.105621	32.03491
1094	5.71647	3.1511228	55.2846	7.105228	32.03214
1095	5.72015	3.1511227	55.1092	7.104761	32.02873
1096	5.72332	3.1509433	54.9459	7.104452	32.02378
1097	5.72564	3.1509432	54.7735	7.104156	32.02166
1098	5.72831	3.1511472	54.6011	7.103710	32.02150
1099	5.73088	3.1512770	54.4288	7.103315	32.02060
1100	5.73411	3.1514253	54.2564	7.102827	32.01929
1101	5.73713	3.1516045	54.0809	7.102349	32.01852
1102	5.73955	3.1514931	53.9118	7.102099	32.01505
1103	5.74248	3.1515425	53.7300	7.101702	32.01292
1104	5.74515	3.1517836	53.5545	7.101236	32.01318
1105	5.74808	3.1516969	53.3762	7.100909	32.00952
1106	5.75171	3.1518761	53.1977	7.100355	32.00817
1107	5.75519	3.1519379	53.0283	7.099882	32.00565
1108	5.75857	3.1520862	52.8500	7.099376	32.00420
1109	5.76139	3.1521418	52.6654	7.098988	32.00223
1110	5.76512	3.1523210	52.4960	7.098421	32.00079
1111	5.76956	3.1525002	52.3147	7.097766	31.99868
1112	5.77410	3.1525681	52.1393	7.097156	31.99522
1113	5.77799	3.1526546	51.9606	7.096619	31.99260
1114	5.78167	3.1527102	51.7702	7.096123	31.98982
1115	5.78531	3.1527410	51.6009	7.095646	31.98681
1116	5.78783	3.1528213	51.4223	7.095284	31.98541
1117	5.79010	3.1530748	51.2499	7.094862	31.98618
1118	5.79257	3.1532231	51.0655	7.094470	31.98560
1119	5.79565	3.1534024	50.8900	7.093986	31.98478
1120	5.79888	3.1534642	50.7025	7.093544	31.98250
1121	5.80181	3.1534888	50.5241	7.093160	31.98009
1122	5.80494	3.1537299	50.3456	7.092637	31.97992
1123	5.80883	3.1537917	50.1642	7.092113	31.97702
1124	5.81232	3.1537607	49.9735	7.091688	31.97346
1125	5.81494	3.1540327	49.8011	7.091213	31.97411
1126	5.81812	3.1543728	49.6137	7.090632	31.97501
1127	5.82009	3.1542119	49.4410	7.090465	31.97142
1128	5.82186	3.1543294	49.2597	7.090178	31.97115
1129	5.82509	3.1544839	49.0661	7.089688	31.96992
1130	5.82848	3.1547251	48.8908	7.089134	31.96950
1131	5.83217	3.1548487	48.7062	7.088603	31.96749
1132	5.83606	3.1550836	48.5336	7.087989	31.96653
1133	5.83995	3.1552011	48.3553	7.087436	31.96425
1134	5.84399	3.1553556	48.1737	7.086845	31.96225
1135	5.84728	3.1556710	47.9982	7.086265	31.96276
1136	5.85213	3.1558627	47.8199	7.085553	31.96040
1137	5.85713	3.1561905	47.6413	7.084752	31.95943
1138	5.86214	3.1565244	47.4659	7.083947	31.95853
1139	5.86770	3.1568832	47.2786	7.083060	31.95738
1140	5.87473	3.1571924	47.0999	7.082015	31.95428
1141	5.88267	3.1574521	46.9245	7.080882	31.94977
1142	5.89026	3.1578728	46.7430	7.079710	31.94740
1143	5.89679	3.1581759	46.5614	7.078732	31.94471
1144	5.90246	3.1585965	46.3798	7.077801	31.94416
1145	5.90873	3.1591905	46.2015	7.076704	31.94497
1146	5.91536	3.1595865	46.0201	7.075666	31.94322
1147	5.92367	3.1601310	45.8506	7.074342	31.94156
1148	5.93238	3.1606384	45.6660	7.072987	31.93910
1149	5.94003	3.1611521	45.4876	7.071762	31.93771
1150	5.94843	3.1617834	45.3062	7.070381	31.93692
1151	5.95867	3.1623342	45.1216	7.068814	31.93351
1152	5.96891	3.1627179	44.9431	7.067334	31.92823
1153	5.97961	3.1631387	44.7586	7.065778	31.92294
1154	5.98970	3.1636525	44.5680	7.064251	31.91925
1155	5.99969	3.1642530	44.3835	7.062691	31.91663
1156	6.00791	3.1646554	44.2019	7.061455	31.91347
1157	6.01582	3.1649773	44.0082	7.060299	31.90970
1158	6.02440	3.1653983	43.8331	7.059009	31.90641
1159	6.03227	3.1657264	43.6422	7.057856	31.90275
1160	6.03932	3.1660608	43.4577	7.056802	31.89993
1161	6.04892	3.1664384	43.2671	7.055409	31.89520
1162	6.05943	3.1667852	43.0827	7.053918	31.88926
1163	6.06827	3.1670576	42.8982	7.052674	31.88408
1164	6.07463	3.1672990	42.7166	7.051756	31.88088
1165	6.07828	3.1674786	42.5261	7.051205	31.87954
1166	6.08174	3.1675652	42.3386	7.050726	31.87734
1167	6.08606	3.1677758	42.1480	7.050077	31.87572
1168	6.08921	3.1677509	41.9603	7.049694	31.87257
1169	6.09109	3.1678376	41.7819	7.049412	31.87185
1170	6.09455	3.1678994	41.5974	7.048946	31.86938
1171	6.09847	3.1679613	41.4128	7.048424	31.86648
1172	6.10014	3.1680789	41.2372	7.048151	31.86630
1173	6.10228	3.1680912	41.0527	7.047875	31.86452
1174	6.10548	3.1682274	40.8653	7.047403	31.86312
1175	6.10904	3.1682273	40.6838	7.046957	31.85986
1176	6.11204	3.1681405	40.4931	7.046624	31.85617
1177	6.11428	3.1683201	40.3118	7.046250	31.85616
1178	6.11657	3.1684068	40.1179	7.045917	31.85507
1179	6.11657	3.1684996	39.9303	7.045866	31.85619
1180	6.11850	3.1685925	39.7580	7.045574	31.85549
1181	6.12222	3.1687721	39.5643	7.045017	31.85410
1182	6.12415	3.1687410	39.3797	7.044788	31.85203
1183	6.12583	3.1688959	39.2013	7.044497	31.85226
1184	6.12822	3.1690135	39.0166	7.044135	31.85141
1185	6.13066	3.1691374	38.8353	7.043765	31.85059
1186	6.13244	3.1692240	38.6416	7.043495	31.84997
1187	6.13387	3.1693169	38.4632	7.043267	31.84975
1188	6.13651	3.1693478	38.2816	7.042918	31.84770
1189	6.13997	3.1694345	38.0939	7.042440	31.84551
1190	6.14339	3.1694591	37.9063	7.042000	31.84268
1191	6.14588	3.1694343	37.7250	7.041699	31.84015
1192	6.14848	3.1695271	37.5374	7.041326	31.83884
1193	6.15000	3.1695581	37.3528	7.041116	31.83784
1194	6.15107	3.1696447	37.1683	7.040935	31.83789
1195	6.15387	3.1695579	36.9777	7.040628	31.83439
1196	6.15647	3.1696817	36.7900	7.040238	31.83342
1197	6.15963	3.1697064	36.6085	7.039830	31.83082
1198	6.16222	3.1697064	36.4299	7.039504	31.82847
1199	6.16283	3.1697063	36.2484	7.039424	31.82799
1200	6.16232	3.1697682	36.0700	7.039452	31.82924
1201	6.16329	3.1698301	35.8763	7.039296	31.82911
1202	6.16482	3.1698734	35.6947	7.039080	31.82825
1203	6.16681	3.1698300	35.5102	7.038852	31.82599
1204	6.16787	3.1699167	35.3226	7.038671	31.82604
1205	6.16910	3.1698856	35.1292	7.038531	31.82464
1206	6.17088	3.1699475	34.9505	7.038274	31.82375
1207	6.17190	3.1699784	34.7507	7.038128	31.82323
1208	6.17276	3.1700651	34.5603	7.037972	31.82348
1209	6.17424	3.1700960	34.3816	7.037769	31.82252
1210	6.17592	3.1700959	34.1972	7.037557	31.82103
1211	6.17745	3.1701578	34.0066	7.037331	31.82038
1212	6.17883	3.1702197	33.8127	7.037125	31.81987
1213	6.17990	3.1703126	33.6223	7.036941	31.82000
1214	6.18076	3.1703187	33.4317	7.036826	31.81934
1215	6.18209	3.1703683	33.2380	7.036632	31.81875
1216	6.18361	3.1704611	33.0566	7.036391	31.81843
1217	6.18489	3.1706718	32.8811	7.036122	31.81966
1218	6.18550	3.1707957	32.6843	7.035979	31.82056
1219	6.18601	3.1710497	32.4968	7.035782	31.82300
1220	6.18815	3.1712479	32.3151	7.035411	31.82328
1221	6.19100	3.1713656	32.1214	7.034993	31.82201
1222	6.19360	3.1715453	31.9400	7.034576	31.82166
1223	6.19635	3.1717559	31.7494	7.034123	31.82151
1224	6.20069	3.1719418	31.5678	7.033488	31.81961
1225	6.20527	3.1721338	31.3772	7.032817	31.81753
1226	6.20803	3.1722701	31.1865	7.032403	31.81656
1227	6.21119	3.1726047	30.9748	7.031836	31.81742
1228	6.21593	3.1724558	30.7812	7.031321	31.81142
1229	6.22067	3.1727843	30.5815	7.030562	31.81072
1230	6.22363	3.1728152	30.3939	7.030176	31.80839
1231	6.22490	3.1729949	30.2063	7.029922	31.80928
1232	6.22745	3.1731870	30.0125	7.029505	31.80912
1233	6.23067	3.1734783	29.8310	7.028955	31.80943
1234	6.23439	3.1737509	29.6402	7.028351	31.80906
1235	6.23878	3.1738748	29.4527	7.027741	31.80642
1236	6.24347	3.1741723	29.2652	7.027005	31.80542
1237	6.24801	3.1744760	29.0804	7.026285	31.80463
1238	6.25158	3.1746867	28.8991	7.025732	31.80372
1239	6.25495	3.1751145	28.7115	7.025094	31.80540
1240	6.25960	3.1755360	28.5239	7.024301	31.80582
1241	6.26628	3.1758708	28.3362	7.023300	31.80337
1242	6.27379	3.1761993	28.1487	7.022202	31.80008
1243	6.28129	3.1766271	27.9731	7.021054	31.79789
1244	6.28875	3.1768564	27.7824	7.020012	31.79356
1245	6.29641	3.1773835	27.6070	7.018795	31.79232
1246	6.30086	3.1778361	27.4344	7.018013	31.79327
1247	6.30627	3.1783199	27.2529	7.017095	31.79365
1248	6.31394	3.1787726	27.0775	7.015916	31.79159
1249	6.32242	3.1792563	26.9019	7.014620	31.78911
1250	6.33157	3.1795291	26.7265	7.013350	31.78367
1251	6.34149	3.1798888	26.5570	7.011941	31.77847
1252	6.34973	3.1802857	26.3937	7.010722	31.77526
1253	6.35740	3.1806827	26.2242	7.009572	31.77257
1254	6.36451	3.1811045	26.0548	7.008479	31.77068
1255	6.36881	3.1814705	25.8762	7.007761	31.77081
1256	6.37255	3.1816814	25.7068	7.007190	31.76974
1257	6.37813	3.1819544	25.5313	7.006362	31.76763
1258	6.38519	3.1822583	25.3679	7.005335	31.76449
1259	6.39123	3.1824692	25.1894	7.004481	31.76127
1260	6.39661	3.1826801	25.0230	7.003710	31.75867
1261	6.40291	3.1830462	24.8596	7.002746	31.75693
1262	6.40654	3.1831951	24.6933	7.002220	31.75526
1263	6.41192	3.1833501	24.5297	7.001477	31.75204
1264	6.41930	3.1837721	24.3693	7.000354	31.74991
1265	6.42529	3.1840823	24.2181	6.999457	31.74783
1266	6.43185	3.1844671	24.0638	6.998454	31.74604
1267	6.43754	3.1849884	23.9005	6.997489	31.74658
1268	6.44354	3.1854415	23.7338	6.996520	31.74607
1269	6.45046	3.1859567	23.5766	6.995408	31.74539
1270	6.45979	3.1863229	23.4223	6.994074	31.74082
1271	6.46872	3.1866518	23.2529	6.992810	31.73623
1272	6.47770	3.1871733	23.0925	6.991443	31.73371
1273	6.48498	3.1876699	22.9321	6.990296	31.73248
1274	6.49422	3.1883529	22.7868	6.988817	31.73149
1275	6.50438	3.1888993	22.6325	6.987293	31.72814
1276	6.51229	3.1892967	22.4723	6.986122	31.72525
1277	6.51943	3.1896009	22.3147	6.985091	31.72204
1278	6.53047	3.1900294	22.1604	6.983520	31.71658
1279	6.54101	3.1905137	21.9971	6.981985	31.71221
1280	6.55026	3.1909112	21.8458	6.980650	31.70807
1281	6.55905	3.1914205	21.6825	6.979316	31.70559
1282	6.56810	3.1916067	21.5221	6.978112	31.69933
1283	6.57720	3.1923087	21.3646	6.976645	31.69868
1284	6.58522	3.1927311	21.2075	6.975450	31.69596
1285	6.59716	3.1932529	21.0500	6.973727	31.69071
1286	6.60874	3.1937063	20.9017	6.972083	31.68503
1287	6.61862	3.1941909	20.7413	6.970630	31.68127
1288	6.62850	3.1944953	20.5871	6.969268	31.67554
1289	6.63906	3.1947127	20.4357	6.967868	31.66822
1290	6.64694	3.1950855	20.2754	6.966717	31.66510
1291	6.65452	3.1954396	20.1273	6.965614	31.66205
1292	6.66085	3.1957752	19.9638	6.964670	31.65994
1293	6.66755	3.1962040	19.8092	6.963637	31.65852
1294	6.67493	3.1966017	19.6582	6.962537	31.65614
1295	6.68158	3.1968751	19.5160	6.961587	31.65306
1296	6.69003	3.1972107	19.3616	6.960387	31.64900
1297	6.69957	3.1974531	19.2043	6.959101	31.64291
1298	6.70896	3.1978819	19.0560	6.957741	31.63901
1299	6.71676	3.1980621	18.9137	6.956700	31.63385
1300	6.72326	3.1982672	18.7533	6.955803	31.63017
1301	6.72997	3.1984909	18.6082	6.954873	31.62650
1302	6.73539	3.1984908	18.4537	6.954210	31.62157
1303	6.74122	3.1984907	18.2964	6.953496	31.61626
1304	6.74711	3.1984595	18.1450	6.952792	31.61056
1305	6.75227	3.1983350	17.9878	6.952222	31.60451
1306	6.75604	3.1982106	17.8517	6.951822	31.59974
1307	6.76090	3.1981856	17.6911	6.951240	31.59507
1308	6.76586	3.1980612	17.5338	6.950695	31.58921
1309	6.77144	3.1979429	17.3795	6.950072	31.58285
1310	6.77635	3.1976941	17.2312	6.949595	31.57568
1311	6.77945	3.1976008	17.0771	6.949260	31.57188
1312	6.78121	3.1976007	16.9165	6.949043	31.57034
1313	6.78296	3.1974514	16.7714	6.948900	31.56715
1314	6.78488	3.1973892	16.6169	6.948695	31.56479
1315	6.78731	3.1973270	16.4656	6.948427	31.56194
1316	6.79030	3.1972087	16.3083	6.948118	31.55797
1317	6.79278	3.1972087	16.1630	6.947813	31.55575
1318	6.79563	3.1971775	16.0056	6.947479	31.55287
1319	6.79868	3.1972023	15.8453	6.947093	31.55041
1320	6.80297	3.1971773	15.6849	6.946580	31.54627
1321	6.80685	3.1970529	15.5275	6.946167	31.54142
1322	6.81047	3.1973575	15.3793	6.945574	31.54148
1323	6.81414	3.1975999	15.2189	6.945004	31.54083
1324	6.81869	3.1977863	15.0493	6.944356	31.53876
1325	6.82340	3.1979043	14.8951	6.943722	31.53580
1326	6.83090	3.1982399	14.7314	6.942642	31.53265
1327	6.83893	3.1985756	14.5684	6.941500	31.52902
1328	6.84850	3.1988242	14.4139	6.940211	31.52301
1329	6.85751	3.1991660	14.2535	6.938946	31.51855
1330	6.86662	3.1994022	14.1052	6.937721	31.51283
1331	6.87584	3.1996135	13.9387	6.936495	31.50676
1332	6.88284	3.1998248	13.7874	6.935540	31.50272
1333	6.89092	3.2000113	13.6269	6.934465	31.49742
1334	6.89880	3.2003781	13.4575	6.933327	31.49427
1335	6.90450	3.2005894	13.2940	6.932528	31.49143
1336	6.91020	3.2007448	13.1368	6.931758	31.48797
1337	6.91575	3.2009562	12.9763	6.930979	31.48526
1338	6.91980	3.2012920	12.8341	6.930321	31.48528
1339	6.92477	3.2016278	12.6827	6.929550	31.48445
1340	6.93084	3.2018080	12.5315	6.928724	31.48093
1341	6.93800	3.2019634	12.3801	6.927778	31.47614
1342	6.94355	3.2022993	12.2288	6.926938	31.47478
1343	6.94936	3.2025107	12.0807	6.926128	31.47183
1344	6.95606	3.2026661	11.9262	6.925239	31.46747
1345	6.96546	3.2030019	11.7751	6.923935	31.46260
1346	6.97464	3.2033066	11.6175	6.922671	31.45759
1347	6.98420	3.2037046	11.4542	6.921318	31.45326
1348	6.99584	3.2041338	11.3028	6.919698	31.44736
1349	7.00919	3.2046189	11.1302	6.917844	31.44051
1350	7.02338	3.2049237	10.9699	6.915979	31.43094
1351	7.03841	3.2053217	10.8093	6.913967	31.42163
1352	7.05058	3.2057510	10.6581	6.912286	31.41526
1353	7.06151	3.2060557	10.5099	6.910816	31.40867
1354	7.07488	3.2066033	10.3585	6.908934	31.40249
1355	7.08654	3.2071259	10.1952	6.907271	31.39761
1356	7.09737	3.2076735	10.0499	6.905696	31.39375
1357	7.11107	3.2080095	9.8986	6.903880	31.38499
1358	7.12525	3.2085322	9.7501	6.901917	31.37782
1359	7.13343	3.2089928	9.6019	6.900705	31.37544
1360	7.14089	3.2096651	9.4536	6.899479	31.37600
1361	7.14574	3.2103686	9.3082	6.898552	31.37928
1362	7.15006	3.2109788	9.1572	6.897733	31.38201
1363	7.16102	3.2115017	9.0207	6.896160	31.37778
1364	7.18382	3.2122301	8.8785	6.893065	31.36500
1365	7.20590	3.2128527	8.7393	6.890109	31.35174
1366	7.22967	3.2139550	8.5942	6.886722	31.34215
1367	7.25099	3.2147210	8.4579	6.883793	31.33115
1368	7.27353	3.2153936	8.3187	6.880765	31.31805
1369	7.29168	3.2163467	8.1857	6.878129	31.31195
1370	7.31225	3.2173871	8.0403	6.875164	31.30462
1371	7.34127	3.2180037	7.9070	6.871395	31.28508
1372	7.37885	3.2187388	7.7648	6.866549	31.25912
1373	7.41017	3.2197856	7.6255	6.862306	31.24219
1374	7.44362	3.2203027	7.4865	6.858067	31.21768
1375	7.48109	3.2209506	7.3350	6.853289	31.19099
1376	7.52217	3.2217170	7.1807	6.848031	31.16238
1377	7.56914	3.2222403	7.0324	6.842193	31.12594
1378	7.63246	3.2229754	6.8841	6.834321	31.07721
1379	7.69346	3.2234674	6.7388	6.826852	31.02811
1380	7.74343	3.2240531	6.5965	6.820655	30.98993
1381	7.79548	3.2245764	6.4544	6.814250	30.94932
1382	7.85705	3.2246069	6.3242	6.806960	30.89516
1383	7.89410	3.2248498	6.1850	6.802472	30.86503
1384	7.91955	3.2248495	6.0578	6.799468	30.84262
1385	7.98556	3.2252854	5.9460	6.791488	30.78912
1386	8.03691	3.2252224	5.8280	6.785474	30.74337
1387	8.08913	3.2251283	5.6796	6.779378	30.69666
1388	8.16569	3.2254331	5.5405	6.770253	30.63300
1389	8.24330	3.2257379	5.4040	6.761020	30.56863
1390	8.31870	3.2257059	5.2711	6.752216	30.50287
1391	8.38183	3.2259547	5.1439	6.744731	30.45088
1392	8.41356	3.2260479	5.0107	6.740986	30.42450
1393	8.42556	3.2259230	4.8777	6.739641	30.41289
1394	8.45281	3.2261722	4.7474	6.736352	30.39206
1395	8.47630	3.2261407	4.6175	6.733629	30.37155
1396	8.50649	3.2262277	4.4780	6.730074	30.34654
1397	8.55123	3.2258903	4.3448	6.725021	30.30466
1398	8.57991	3.2259835	4.2088	6.721645	30.28110
1399	8.61213	3.2261952	4.0635	6.717807	30.25577
1400	8.66760	3.2258266	3.9272	6.711536	30.20460
1401	8.71056	3.2258573	3.7820	6.706541	30.16834
1402	8.73291	3.2255201	3.6547	6.704102	30.14588
1403	8.77182	3.2249645	3.5277	6.699845	30.10711
1404	8.78148	3.2243780	3.4036	6.698985	30.09289
1405	8.77073	3.2240725	3.2825	6.700361	30.09892
1406	8.79707	3.2238851	3.1402	6.697395	30.07469
1407	8.84862	3.2219513	3.0132	6.692292	30.01115
1408	8.89020	3.2204731	2.8740	6.688139	29.96085
1409	8.94547	3.2190263	2.7347	6.682397	29.89948
1410	8.99387	3.2182591	2.5804	6.677150	29.85100
1411	9.00949	3.2163581	2.4290	6.676181	29.81846
1412	9.06859	3.2147686	2.2806	6.670067	29.75279
1413	9.11824	3.2135657	2.1262	6.664876	29.69913
1414	9.14849	3.2116034	1.9659	6.662248	29.65396
1415	9.20028	3.2095790	1.8144	6.657173	29.59037
1416	9.22180	3.2074683	1.6723	6.655613	29.55108
1417	9.25186	3.2054203	1.5480	6.653045	29.50542
1418	9.27775	3.2035532	1.4269	6.650877	29.46509
1419	9.29239	3.2021781	1.3181	6.649789	29.43909
1420	9.32525	3.2013567	1.2031	6.646369	29.40375
1421	9.36018	3.2001310	1.0882	6.642888	29.36267
1422	9.38968	3.1989118	0.9611	6.640027	29.32617
1423	9.43003	3.1978480	0.8338	6.635858	29.28244
1424	9.45582	3.1958832	0.6946	6.633743	29.24154
1425	9.44831	3.1925769	0.5646	6.636018	29.21425
1426	9.45964	3.1870423	0.4555	6.637087	29.14906
1427	9.47390	3.1860983	0.3436	6.635854	29.12797
1428	9.46793	3.1970516	0.1892	6.631849	29.24370
1429	9.50857	3.2045584	0.0894	6.623991	29.28652
1430	9.66131	3.2011040	0.1012	6.608044	29.12750
1431	9.88868	3.1873110	0.1015	6.587995	28.80639
1432	10.22588	3.1739735	0.0986	6.555336	28.40734
1433	10.62568	3.1677162	0.1018	6.512907	28.03605
1434	10.94118	3.0019046	0.0958	6.543499	26.19329
1435	11.13400	0.8338590	0.1020	7.377476	6.47571
1436	11.10433	0.8329633	0.1050	7.382584	6.47343
1437	11.00920	0.7827290	0.1020	7.417480	6.07061
1438	10.94922	0.7844112	0.1020	7.426565	6.09451
1439	10.90305	0.7772889	0.0960	7.436868	6.04268
1440	10.86829	0.8605495	0.1024	7.409787	6.74719
1441	10.83677	0.8967751	0.0930	7.400556	7.05922
1442	10.78164	0.8583011	0.1054	7.424684	6.74410
1443	10.70752	0.7589897	0.0964	7.476101	5.92147
1444	10.65304	0.5921130	0.0934	7.550903	4.54510
1445	10.58747	0.5483362	0.1056	7.579160	4.19432
1446	10.50022	0.4758617	0.0967	7.622449	3.61398
1447	10.44331	0.4416627	0.0999	7.645639	3.34304
1448	10.40704	0.4477640	0.0999	7.649547	3.39562
1449	10.38711	0.4331259	0.0968	7.658738	3.27929
1450	10.37296	0.3674727	0.0999	7.686779	2.75432
1451	10.36062	0.3709203	0.0971	7.687608	2.78272
1452	10.34750	0.3269050	0.1002	7.706951	2.43434
1453	10.33365	0.2932913	0.1002	7.722334	2.17068
1454	10.31963	0.3195020	0.1001	7.714736	2.37772
1455	10.30624	0.3240896	0.1064	7.715335	2.41483
1456	10.29251	0.2744386	0.1005	7.736876	2.02551
1457	10.27840	0.3239556	0.1036	7.720318	2.41561
1458	10.26361	0.2874121	0.1005	7.737046	2.12869
1459	10.24449	0.2942050	0.0977	7.737837	2.18315
1460	10.21494	0.2865425	0.1008	7.746060	2.12469
1461	10.21500	0.2944632	0.1008	7.742993	2.18694
1462	10.22509	0.4147492	0.0947	7.694267	3.14528
1463	10.22780	0.3342078	0.0978	7.725312	2.50024
1464	10.22052	0.3174539	0.0979	7.733110	2.36796
1465	10.20322	0.3075549	0.0949	7.740026	2.29084
1466	10.18030	0.2962568	0.1011	7.748491	2.20314
1467	10.15700	0.2882682	0.0892	7.755748	2.14163
1468	10.13686	0.2728708	0.1011	7.765310	2.02184
1469	10.11903	0.2557637	0.0891	7.775112	1.88892
1470	10.10279	0.2529462	0.0861	7.779121	1.86776
1471	10.08874	0.2258724	0.0985	7.792059	1.65786
1472	10.07616	0.2210276	0.0985	7.796191	1.62091
1473	10.06348	0.2236305	0.0955	7.797490	1.64163
1474	10.05074	0.2312305	0.0956	7.796876	1.70118
1475	10.03811	0.2405819	0.0956	7.795558	1.77454
1476	10.02768	0.2472587	0.0958	7.794865	1.82715
1477	10.01719	0.2555094	0.0927	7.793566	1.89220
1478	10.00581	0.2602712	0.0897	7.793775	1.93012
1479	9.99433	0.2627967	0.0989	7.794869	1.95054
1480	9.98340	0.2658595	0.0990	7.795651	1.97519
1481	9.97326	0.2703739	0.0958	7.795723	2.01125
1482	9.96061	0.2637483	0.0961	7.800592	1.95983
