Scan Count	Temperature [ITS-90, deg C]	Conductivity [S/m]	Depth [salt water, m]	Oxygen Saturation, Weiss [ml/l]	Salinity, Practical [PSU]
1	14.80634	0.0011256	0.0026	7.076506	0.01192
2	14.80704	0.0011318	0.0026	7.076397	0.01195
3	14.80678	0.0010763	0.0138	7.076448	0.01169
4	14.80659	0.0008480	0.0361	7.076524	0.01061
5	14.80742	0.0011318	-0.0032	7.076338	0.01195
6	14.80781	0.0011411	0.0028	7.076277	0.01200
7	14.80889	0.0011411	0.0090	7.076110	0.01200
8	14.81081	0.0011318	0.0057	7.075817	0.01195
9	14.81324	0.0011411	0.0059	7.075441	0.01200
10	14.81586	0.0011411	0.0027	7.075038	0.01200
11	14.81605	0.0011318	0.0057	7.075011	0.01196
12	14.81369	0.0011318	0.0087	7.075375	0.01196
13	14.81190	0.0011318	-0.0003	7.075650	0.01195
14	14.81292	0.0011411	0.0056	7.075491	0.01200
15	14.81503	0.0011318	0.0058	7.075168	0.01196
16	14.81675	0.0011318	0.0087	7.074903	0.01196
17	14.81835	0.0011318	0.0087	7.074657	0.01196
18	14.81848	0.0011318	0.0028	7.074637	0.01196
19	14.81631	0.0011226	0.0117	7.074973	0.01191
20	14.80908	0.0011318	0.0117	7.076082	0.01195
21	14.80461	0.0011318	-0.0004	7.076770	0.01195
22	14.80423	0.0011318	-0.0002	7.076829	0.01195
23	14.80493	0.0011318	0.0026	7.076721	0.01195
24	14.80493	0.0011318	0.0057	7.076721	0.01195
25	14.80519	0.0011256	0.0058	7.076683	0.01192
26	14.80602	0.0011318	0.0027	7.076554	0.01195
27	14.80608	0.0011318	0.0057	7.076544	0.01195
28	14.80653	0.0011318	0.0026	7.076476	0.01195
29	14.80717	0.0011318	0.0058	7.076377	0.01195
30	14.80800	0.0011256	0.0057	7.076251	0.01192
31	14.80934	0.0011411	0.0025	7.076041	0.01200
32	14.81100	0.0011318	-0.0004	7.075787	0.01195
33	14.81247	0.0011411	0.0057	7.075559	0.01200
34	14.81190	0.0011411	0.0026	7.075648	0.01200
35	14.80832	0.0011318	0.0085	7.076200	0.01195
36	14.80301	0.0011411	0.0117	7.077014	0.01200
37	14.79343	0.0011411	0.0086	7.078489	0.01199
38	14.78072	0.0011411	0.0087	7.080446	0.01199
39	14.76285	0.0011318	0.0026	7.083201	0.01194
40	14.74728	0.0011318	0.0087	7.085601	0.01194
41	14.74499	0.0011318	0.0025	7.085956	0.01194
42	14.74856	0.0011318	-0.0004	7.085405	0.01194
43	14.75296	0.0011318	0.0026	7.084726	0.01194
44	14.75730	0.0011318	0.0026	7.084057	0.01194
45	14.76119	0.0011318	0.0025	7.083457	0.01194
46	14.76451	0.0011411	0.0056	7.082944	0.01199
47	14.76777	0.0011318	-0.0004	7.082444	0.01194
48	14.77230	0.0011411	0.0055	7.081744	0.01199
49	14.77600	0.0011318	0.0026	7.081176	0.01194
50	14.77862	0.0011411	0.0087	7.080770	0.01199
51	14.78021	0.0011318	0.0086	7.080526	0.01195
52	14.78117	0.0011318	0.0086	7.080379	0.01195
53	14.78168	0.0011318	0.0086	7.080300	0.01195
54	14.78213	0.0011318	0.0116	7.080231	0.01195
55	14.78258	0.0011318	0.0056	7.080163	0.01195
56	14.78187	0.0011318	0.0056	7.080271	0.01195
57	14.78130	0.0011411	0.0087	7.080357	0.01199
58	14.78015	0.0011411	0.0117	7.080534	0.01199
59	14.78053	0.0011318	0.0116	7.080477	0.01195
60	14.78181	0.0011318	0.0026	7.080281	0.01195
61	14.77964	0.0033145	0.0358	7.080125	0.02322
62	14.57636	1.3472995	0.1086	6.691897	9.92498
63	14.25075	1.8945644	0.1994	6.551921	14.49197
64	14.02891	2.8134838	0.2994	6.266972	22.46930
65	13.87037	2.8384068	0.4205	6.275795	22.78180
66	13.75400	2.8560187	0.5536	6.282467	23.00684
67	13.67990	2.8309813	0.6475	6.299229	22.82885
68	13.64043	2.8203344	0.6778	6.307259	22.75774
69	13.62225	2.8303107	0.6838	6.305804	22.85717
70	13.61304	2.8445289	0.6748	6.301887	22.98910
71	13.60656	2.8439400	0.6566	6.302804	22.98775
72	13.60149	2.8645752	0.6415	6.296201	23.17451
73	13.59637	2.8786117	0.6264	6.291891	23.30270
74	13.59384	2.8851999	0.6262	6.289882	23.36298
75	13.59322	2.8881312	0.6232	6.288932	23.38950
76	13.59612	2.8903273	0.6234	6.287853	23.40732
77	13.60094	2.8915482	0.6293	6.286904	23.41527
78	13.60835	2.8930448	0.6415	6.285576	23.42409
79	13.61811	2.8766099	0.6474	6.290208	23.27166
80	13.62485	2.8860610	0.6596	6.286197	23.35177
81	13.62374	2.8953500	0.6656	6.283100	23.43524
82	13.62089	2.8980274	0.6536	6.282482	23.46085
83	13.61786	2.8975781	0.6263	6.282967	23.45871
84	13.61502	2.8943380	0.6142	6.284400	23.43155
85	13.61045	2.8982012	0.6111	6.283559	23.46880
86	13.60742	2.8984589	0.6293	6.283800	23.47294
87	13.60952	2.8974225	0.6506	6.283931	23.46241
88	13.61428	2.8812474	0.6656	6.289020	23.31530
89	13.62052	2.8791852	0.6505	6.289052	23.29314
90	13.62905	2.8862643	0.6324	6.285668	23.35104
91	13.64680	2.8944155	0.6294	6.280911	23.41286
92	13.64717	2.8973083	0.6324	6.279870	23.43840
93	13.63684	2.9001004	0.6415	6.280028	23.46959
94	13.62819	2.9013410	0.6474	6.280540	23.48594
95	13.62411	2.9025278	0.6445	6.280573	23.49902
96	13.62343	2.9020363	0.6445	6.280817	23.49505
97	13.62065	2.9001185	0.6293	6.281784	23.47966
98	13.61601	2.9030733	0.6324	6.281265	23.50885
99	13.61070	2.9044943	0.6446	6.281351	23.52478
100	13.60576	2.9049260	0.6536	6.281739	23.53165
101	13.60427	2.9017188	0.6536	6.283013	23.50395
102	13.61051	2.8975363	0.6506	6.283783	23.46282
103	13.61360	2.9005920	0.6264	6.282387	23.48819
104	13.61181	2.9049859	0.6233	6.281059	23.52849
105	13.60693	2.9050699	0.6233	6.281561	23.53223
106	13.60131	2.9055617	0.6385	6.282003	23.54006
107	13.59878	2.9062273	0.6415	6.282048	23.54755
108	13.60057	2.9063413	0.6414	6.281813	23.54747
109	13.60520	2.9041466	0.6384	6.282070	23.52504
110	13.60878	2.9043864	0.6202	6.281597	23.52499
111	13.60860	2.9077567	0.6081	6.280448	23.55518
112	13.60452	2.9061373	0.6111	6.281453	23.54323
113	13.59884	2.9056756	0.6324	6.282232	23.54259
114	13.59711	2.9058196	0.6627	6.282371	23.54493
115	13.59989	2.9001307	0.6687	6.284042	23.49246
116	13.60551	2.8986746	0.6626	6.283934	23.47603
117	13.61848	2.8995852	0.6537	6.282205	23.47622
118	13.65013	2.9030191	0.6293	6.277571	23.48748
119	13.67303	2.9049554	0.6294	6.274413	23.49073
120	13.67117	2.9049254	0.6354	6.274625	23.49160
121	13.65787	2.9049795	0.6295	6.276052	23.50022
122	13.65242	2.9043320	0.6233	6.276867	23.49778
123	13.64772	2.9061969	0.6172	6.276733	23.51728
124	13.64098	2.9058791	0.6142	6.277576	23.51858
125	13.63214	2.9064549	0.6112	6.278338	23.52913
126	13.62330	2.9063111	0.6263	6.279349	23.53326
127	13.61576	2.9063411	0.6324	6.280159	23.53815
128	13.61020	2.9069349	0.6385	6.280559	23.54686
129	13.61014	2.9073248	0.6384	6.280430	23.55037
130	13.61224	2.9080206	0.6415	6.279960	23.55529
131	13.61076	2.9085125	0.6444	6.279951	23.56059
132	13.60742	2.9083385	0.6687	6.280375	23.56108
133	13.60471	2.9087405	0.6718	6.280531	23.56633
134	13.61002	2.9070069	0.6658	6.280554	23.54760
135	13.61576	2.9060233	0.6384	6.280270	23.53531
136	13.63412	2.9076425	0.6111	6.277712	23.53851
137	13.65657	2.9088600	0.6081	6.274851	23.53560
138	13.66461	2.9090879	0.6051	6.273898	23.53271
139	13.65756	2.9089320	0.6202	6.274718	23.53563
140	13.64376	2.9090581	0.6385	6.276174	23.54521
141	13.63103	2.9092622	0.6505	6.277487	23.55484
142	13.62275	2.9099282	0.6535	6.278157	23.56586
143	13.62491	2.9095502	0.6446	6.278053	23.56116
144	13.62893	2.9091182	0.6204	6.277765	23.55485
145	13.63659	2.9091541	0.6051	6.276920	23.55047
146	13.65007	2.9098439	0.5961	6.275216	23.54836
147	13.65892	2.9103059	0.6203	6.274095	23.54705
148	13.65954	2.9097239	0.6475	6.274230	23.54147
149	13.64828	2.9101020	0.6627	6.275322	23.55174
150	13.64315	2.9097540	0.6658	6.276000	23.55178
151	13.64216	2.9092081	0.6566	6.276297	23.54753
152	13.64760	2.9090340	0.6475	6.275765	23.54264
153	13.67383	2.9093218	0.6354	6.272816	23.52913
154	13.70677	2.9096994	0.6354	6.269111	23.51234
155	13.73590	2.9100171	0.6354	6.265843	23.49736
156	13.75946	2.9102209	0.6264	6.263219	23.48478
157	13.77181	2.9102448	0.6232	6.261873	23.47745
158	13.78292	2.9103647	0.6142	6.260629	23.47174
159	13.79372	2.9105626	0.5961	6.259391	23.46692
160	13.80018	2.9105385	0.6082	6.258701	23.46276
161	13.80590	2.9106525	0.6325	6.258044	23.46029
162	13.80136	2.9103345	0.6536	6.258644	23.46022
163	13.76008	2.9102449	0.6656	6.263144	23.48460
164	13.71941	2.9105393	0.6658	6.267451	23.51207
165	13.69940	2.9112296	0.6476	6.269383	23.53046
166	13.69098	2.9111456	0.6235	6.270325	23.53488
167	13.67426	2.9097837	0.6233	6.272610	23.53299
168	13.64568	2.9089741	0.6294	6.275994	23.54329
169	13.61391	2.9091483	0.6536	6.279388	23.56433
170	13.58951	2.9098445	0.6628	6.281801	23.58553
171	13.57871	2.9107987	0.6536	6.282645	23.60069
172	13.57785	2.9114948	0.6325	6.282497	23.60745
173	13.57501	2.9117589	0.6172	6.282714	23.61156
174	13.56439	2.9105648	0.6021	6.284284	23.60743
175	13.54619	2.9103369	0.5962	6.286345	23.61660
176	13.52511	2.9105952	0.6114	6.288553	23.63190
177	13.50108	2.9117536	0.6295	6.290769	23.65709
178	13.48261	2.9128040	0.6446	6.292417	23.67790
179	13.47313	2.9135244	0.6537	6.293200	23.69021
180	13.47331	2.9127381	0.6475	6.293454	23.68306
181	13.47713	2.9121619	0.6385	6.293239	23.67554
182	13.47393	2.9125700	0.6204	6.293445	23.68118
183	13.48329	2.9133803	0.6174	6.292142	23.68265
184	13.49326	2.9147429	0.6385	6.290579	23.68868
185	13.49677	2.9163100	0.6567	6.289651	23.70053
186	13.49622	2.9166282	0.6688	6.289600	23.70372
187	13.49394	2.9161899	0.6658	6.290001	23.70121
188	13.49763	2.9144487	0.6568	6.290206	23.68334
189	13.50102	2.9140404	0.6416	6.289979	23.67759
190	13.51679	2.9143044	0.6204	6.288168	23.67022
191	13.53238	2.9156971	0.6144	6.285985	23.67305
192	13.54225	2.9159612	0.6173	6.284819	23.66932
193	13.54700	2.9164536	0.6325	6.284131	23.67078
194	13.54675	2.9166217	0.6417	6.284100	23.67244
195	13.54613	2.9171802	0.6416	6.283973	23.67781
196	13.54669	2.9179910	0.6477	6.283630	23.68472
197	13.54317	2.9181953	0.6536	6.283942	23.68871
198	13.54021	2.9177028	0.6537	6.284435	23.68614
199	13.54200	2.9170121	0.6447	6.284481	23.67886
200	13.54410	2.9165977	0.6295	6.284396	23.67386
201	13.54502	2.9159012	0.6264	6.284538	23.66706
202	13.55600	2.9165376	0.6174	6.283122	23.66598
203	13.56908	2.9175584	0.6145	6.281345	23.66703
204	13.57451	2.9186334	0.6296	6.280381	23.67328
205	13.57667	2.9193302	0.6538	6.279905	23.67817
206	13.57161	2.9194745	0.6690	6.280405	23.68258
207	13.56532	2.9180509	0.6659	6.281583	23.67374
208	13.56649	2.9170359	0.6568	6.281808	23.66395
209	13.56840	2.9155227	0.6296	6.282126	23.64925
210	13.59248	2.9159908	0.6023	6.279345	23.63861
211	13.62948	2.9170353	0.6115	6.274963	23.62514
212	13.64667	2.9182844	0.6447	6.272665	23.62570
213	13.63604	2.9177620	0.6780	6.274001	23.62757
214	13.61261	2.9173958	0.6962	6.276671	23.63872
215	13.59884	2.9161349	0.6871	6.278605	23.63595
216	13.59198	2.9153784	0.6417	6.279612	23.63343
217	13.62200	2.9149158	0.5932	6.276509	23.61083
218	13.67055	2.9151194	0.5480	6.271168	23.58283
219	13.70082	2.9147289	0.5507	6.268020	23.56078
220	13.69791	2.9127960	0.6024	6.269003	23.54534
221	13.65601	2.9104799	0.6660	6.274352	23.55037
222	13.61502	2.9107143	0.7054	6.278725	23.57760
223	13.58834	2.9118968	0.7205	6.281217	23.60456
224	13.57217	2.9127672	0.7024	6.282674	23.62229
225	13.57828	2.9133794	0.6661	6.281796	23.62401
226	13.61372	2.9129108	0.6297	6.278104	23.59802
227	13.64253	2.9116982	0.6237	6.275394	23.56951
228	13.65378	2.9113200	0.6207	6.274302	23.55923
229	13.65150	2.9115781	0.6267	6.274462	23.56294
230	13.63752	2.9119503	0.6388	6.275851	23.57483
231	13.62238	2.9125086	0.6389	6.277303	23.58911
232	13.61397	2.9130009	0.6417	6.278046	23.59867
233	13.61026	2.9133491	0.6448	6.278328	23.60406
234	13.60687	2.9137573	0.6449	6.278556	23.60979
235	13.60563	2.9136252	0.6328	6.278736	23.60938
236	13.60310	2.9134632	0.6238	6.279068	23.60949
237	13.60063	2.9136673	0.6176	6.279265	23.61283
238	13.60335	2.9139314	0.6237	6.278878	23.61352
239	13.60427	2.9137813	0.6328	6.278830	23.61161
240	13.59958	2.9132591	0.6478	6.279521	23.60983
241	13.58945	2.9133553	0.6632	6.280589	23.61691
242	13.58198	2.9139856	0.6722	6.281183	23.62714
243	13.58247	2.9143638	0.6630	6.280998	23.63022
244	13.58470	2.9144478	0.6510	6.280727	23.62960
245	13.59167	2.9146519	0.6358	6.279897	23.62713
246	13.61304	2.9146157	0.6208	6.277587	23.61366
247	13.63678	2.9139851	0.6146	6.275227	23.59344
248	13.65013	2.9132346	0.6359	6.274037	23.57854
249	13.64921	2.9130606	0.6632	6.274198	23.57755
250	13.64401	2.9134088	0.6814	6.274642	23.58384
251	13.64271	2.9137389	0.6753	6.274668	23.58758
252	13.64036	2.9141291	0.6540	6.274788	23.59251
253	13.64074	2.9143332	0.6359	6.274677	23.59411
254	13.65335	2.9145673	0.6208	6.273226	23.58845
255	13.67123	2.9143630	0.6026	6.271356	23.57566
256	13.68361	2.9136005	0.6027	6.270276	23.56127
257	13.68485	2.9129402	0.6148	6.270370	23.55462
258	13.67909	2.9129702	0.6238	6.270985	23.55842
259	13.67117	2.9132044	0.6542	6.271764	23.56535
260	13.66653	2.9135526	0.6512	6.272147	23.57131
261	13.66603	2.9139008	0.6482	6.272080	23.57471
262	13.66207	2.9141469	0.6481	6.272425	23.57934
263	13.65688	2.9143931	0.6450	6.272904	23.58472
264	13.66207	2.9144771	0.6422	6.272311	23.58228
265	13.67018	2.9141589	0.6391	6.271541	23.57447
266	13.67272	2.9136966	0.6391	6.271426	23.56880
267	13.67173	2.9140388	0.6483	6.271415	23.57245
268	13.67247	2.9147112	0.6452	6.271102	23.57799
269	13.67451	2.9147412	0.6332	6.270870	23.57700
270	13.67785	2.9144470	0.6391	6.270609	23.57233
271	13.68466	2.9143028	0.6451	6.269920	23.56687
272	13.68980	2.9148911	0.6422	6.269160	23.56896
273	13.69315	2.9150592	0.6299	6.268739	23.56841
274	13.69637	2.9152032	0.6239	6.268340	23.56772
275	13.70343	2.9145067	0.6120	6.267815	23.55719
276	13.71030	2.9138703	0.6300	6.267289	23.54730
277	13.71179	2.9135702	0.6392	6.267232	23.54372
278	13.71235	2.9136662	0.6664	6.267138	23.54422
279	13.71371	2.9138403	0.6634	6.266931	23.54494
280	13.71544	2.9140744	0.6787	6.266662	23.54596
281	13.71625	2.9143626	0.6694	6.266475	23.54803
282	13.71557	2.9145967	0.6514	6.266468	23.55054
283	13.71315	2.9145907	0.6331	6.266732	23.55197
284	13.71049	2.9145667	0.6211	6.267029	23.55339
285	13.70881	2.9143326	0.6059	6.267291	23.55234
286	13.70844	2.9138103	0.6150	6.267511	23.54791
287	13.70553	2.9135823	0.6333	6.267906	23.54766
288	13.68466	2.9135704	0.6424	6.270173	23.56034
289	13.65545	2.9138709	0.6515	6.273239	23.58094
290	13.64203	2.9139550	0.6484	6.274667	23.58993
291	13.63319	2.9139851	0.6422	6.275617	23.59564
292	13.61638	2.9141294	0.6393	6.277393	23.60726
293	13.61447	2.9142855	0.6302	6.277547	23.60984
294	13.62565	2.9141593	0.6302	6.276376	23.60183
295	13.63511	2.9137570	0.6302	6.275487	23.59243
296	13.63529	2.9135829	0.6485	6.275528	23.59076
297	13.63041	2.9136670	0.6546	6.276029	23.59451
298	13.63171	2.9139852	0.6515	6.275778	23.59655
299	13.63783	2.9144533	0.6455	6.274951	23.59696
300	13.64494	2.9145073	0.6302	6.274160	23.59308
301	13.65849	2.9139849	0.6303	6.272870	23.58010
302	13.66770	2.9136667	0.6364	6.271980	23.57161
303	13.67315	2.9137266	0.6455	6.271368	23.56880
304	13.67680	2.9140388	0.6425	6.270864	23.56934
305	13.68101	2.9143629	0.6364	6.270296	23.56965
306	13.68076	2.9140147	0.6274	6.270443	23.56670
307	13.68033	2.9136665	0.6365	6.270610	23.56386
308	13.68132	2.9132884	0.6637	6.270633	23.55987
309	13.67352	2.9134085	0.6728	6.271438	23.56572
310	13.66195	2.9136667	0.6789	6.272605	23.57512
311	13.65508	2.9141290	0.6608	6.273190	23.58347
312	13.65341	2.9145973	0.6395	6.273209	23.58867
313	13.67352	2.9143629	0.6123	6.271108	23.57425
314	13.69575	2.9133782	0.6065	6.269037	23.55185
315	13.70646	2.9128559	0.6064	6.268055	23.54063
316	13.70380	2.9132341	0.6275	6.268214	23.54563
317	13.68454	2.9136665	0.6548	6.270154	23.56127
318	13.65317	2.9139009	0.6638	6.273477	23.58261
319	13.62676	2.9139552	0.6670	6.276326	23.59931
320	13.61984	2.9138472	0.6609	6.277115	23.60261
321	13.61249	2.9143035	0.6457	6.277756	23.61121
322	13.62176	2.9144775	0.6336	6.276688	23.60706
323	13.63888	2.9141292	0.6245	6.274949	23.59343
324	13.65020	2.9134927	0.6337	6.273940	23.58080
325	13.65218	2.9135167	0.6367	6.273717	23.57980
326	13.65069	2.9136368	0.6336	6.273837	23.58178
327	13.64896	2.9138409	0.6458	6.273954	23.58466
328	13.64284	2.9141291	0.6549	6.274520	23.59099
329	13.63325	2.9142193	0.6640	6.275529	23.59768
330	13.62528	2.9142313	0.6671	6.276391	23.60269
331	13.62052	2.9141894	0.6702	6.276923	23.60524
332	13.62027	2.9137812	0.6610	6.277091	23.60175
333	13.62293	2.9137811	0.6459	6.276802	23.60012
334	13.62905	2.9139011	0.6277	6.276096	23.59744
335	13.64210	2.9137929	0.6066	6.274716	23.58846
336	13.65607	2.9133786	0.6036	6.273342	23.57619
337	13.66399	2.9139008	0.6187	6.272302	23.57598
338	13.66325	2.9143631	0.6430	6.272223	23.58054
339	13.63542	2.9149457	0.6672	6.275043	23.60283
340	13.60088	2.9147719	0.6822	6.278856	23.62253
341	13.58309	2.9139556	0.6731	6.281073	23.62619
342	13.56624	2.9141899	0.6581	6.282824	23.63867
343	13.56439	2.9142739	0.6308	6.282996	23.64057
344	13.58340	2.9145679	0.6097	6.280826	23.63149
345	13.60273	2.9143636	0.6097	6.278795	23.61776
346	13.60711	2.9150000	0.6248	6.278098	23.62074
347	13.59939	2.9148560	0.6520	6.278988	23.62420
348	13.57957	2.9147961	0.6764	6.281164	23.63586
349	13.56396	2.9144240	0.6854	6.282991	23.64216
350	13.55606	2.9141900	0.6674	6.283932	23.64494
351	13.55138	2.9143161	0.6370	6.284398	23.64897
352	13.56427	2.9143940	0.6067	6.282967	23.64172
353	13.58618	2.9142737	0.6158	6.280626	23.62715
354	13.59736	2.9143637	0.6189	6.279380	23.62107
355	13.59384	2.9136674	0.6521	6.280004	23.61701
356	13.57797	2.9129412	0.6885	6.281982	23.62028
357	13.56569	2.9135536	0.6945	6.283106	23.63331
358	13.55835	2.9141599	0.6856	6.283694	23.64326
359	13.55761	2.9142500	0.6462	6.283743	23.64453
360	13.58291	2.9140756	0.6099	6.281050	23.62739
361	13.61255	2.9134331	0.5857	6.278050	23.60342
362	13.62880	2.9124725	0.5917	6.276617	23.58486
363	13.62961	2.9122445	0.6099	6.276609	23.58232
364	13.61440	2.9113204	0.6403	6.278582	23.58341
365	13.59519	2.9106845	0.6645	6.280891	23.58953
366	13.58075	2.9112307	0.6947	6.282274	23.60329
367	13.57383	2.9123951	0.6887	6.282622	23.61795
368	13.56772	2.9131454	0.6827	6.283026	23.62841
369	13.56865	2.9135235	0.6644	6.282794	23.63123
370	13.58846	2.9135233	0.6342	6.280638	23.61903
371	13.61255	2.9130009	0.6191	6.278200	23.59955
372	13.62695	2.9118124	0.6192	6.277047	23.58010
373	13.63053	2.9108282	0.6282	6.276999	23.56911
374	13.62806	2.9106242	0.6524	6.277338	23.56881
375	13.61817	2.9108823	0.6616	6.278324	23.57718
376	13.60928	2.9115545	0.6646	6.279058	23.58864
377	13.60353	2.9118966	0.6555	6.279564	23.59523
378	13.59736	2.9120887	0.6404	6.280169	23.60075
379	13.59538	2.9122748	0.6253	6.280319	23.60363
380	13.59989	2.9121907	0.6132	6.279858	23.60011
381	13.60273	2.9114945	0.5980	6.279790	23.59215
382	13.60254	2.9110565	0.6132	6.279962	23.58835
383	13.60013	2.9103364	0.6435	6.280475	23.58340
384	13.58636	2.9099886	0.6707	6.282094	23.58875
385	13.57050	2.9102467	0.6949	6.283731	23.60080
386	13.56168	2.9111169	0.6920	6.284389	23.61401
387	13.55748	2.9121311	0.6889	6.284493	23.62566
388	13.56032	2.9127373	0.6619	6.283973	23.62934
389	13.58019	2.9126951	0.6346	6.281825	23.61673
390	13.60044	2.9116986	0.6224	6.279968	23.59537
391	13.61039	2.9109724	0.6134	6.279138	23.58278
392	13.61304	2.9104203	0.6133	6.279041	23.57622
393	13.60872	2.9102763	0.6133	6.279561	23.57759
394	13.59760	2.9101684	0.6255	6.280808	23.58346
395	13.58019	2.9101026	0.6406	6.282726	23.59357
396	13.55773	2.9102168	0.6497	6.285131	23.60841
397	13.54034	2.9104510	0.6588	6.286944	23.62121
398	13.53269	2.9107991	0.6498	6.287656	23.62904
399	13.53097	2.9109131	0.6407	6.287804	23.63113
400	13.52708	2.9109672	0.6497	6.288209	23.63400
401	13.51932	2.9106252	0.6588	6.289174	23.63573
402	13.50835	2.9106553	0.6710	6.290360	23.64276
403	13.49905	2.9107154	0.6801	6.291353	23.64904
404	13.49492	2.9110335	0.6710	6.291692	23.65443
405	13.49425	2.9111775	0.6409	6.291715	23.65615
406	13.50213	2.9115435	0.6257	6.290728	23.65456
407	13.52240	2.9112313	0.6044	6.288627	23.63927
408	13.53966	2.9110331	0.6106	6.286815	23.62685
409	13.54484	2.9112610	0.6134	6.286172	23.62569
410	13.53935	2.9116692	0.6317	6.286628	23.63272
411	13.52647	2.9118974	0.6409	6.287952	23.64270
412	13.51599	2.9121315	0.6439	6.289012	23.65126
413	13.51014	2.9122216	0.6499	6.289619	23.65568
414	13.50410	2.9121316	0.6530	6.290308	23.65860
415	13.49628	2.9121317	0.6560	6.291161	23.66343
416	13.48926	2.9122278	0.6531	6.291893	23.66863
417	13.48550	2.9124499	0.6500	6.292225	23.67294
418	13.48649	2.9127680	0.6560	6.292007	23.67518
419	13.48753	2.9128880	0.6530	6.291851	23.67561
420	13.48710	2.9129421	0.6500	6.291879	23.67636
421	13.48630	2.9128580	0.6562	6.291996	23.67610
422	13.48526	2.9129721	0.6531	6.292070	23.67777
423	13.48489	2.9126840	0.6440	6.292211	23.67542
424	13.48489	2.9125099	0.6379	6.292271	23.67386
425	13.48815	2.9125699	0.6320	6.291894	23.67238
426	13.49683	2.9126238	0.6259	6.290929	23.66750
427	13.50201	2.9127799	0.6351	6.290310	23.66570
428	13.50539	2.9128579	0.6441	6.289914	23.66430
429	13.50626	2.9129119	0.6411	6.289801	23.66426
430	13.50582	2.9127378	0.6442	6.289909	23.66296
431	13.50860	2.9124797	0.6442	6.289697	23.65894
432	13.51254	2.9126417	0.6320	6.289210	23.65796
433	13.52135	2.9126236	0.6322	6.288256	23.65236
434	13.53294	2.9125095	0.6321	6.287034	23.64419
435	13.53849	2.9125094	0.6473	6.286430	23.64076
436	13.54028	2.9125394	0.6504	6.286225	23.63993
437	13.54206	2.9123053	0.6504	6.286111	23.63673
438	13.54453	2.9123353	0.6383	6.285832	23.63548
439	13.54743	2.9123053	0.6202	6.285527	23.63343
440	13.55600	2.9120711	0.6171	6.284675	23.62606
441	13.56013	2.9123652	0.6323	6.284123	23.62613
442	13.56050	2.9127373	0.6353	6.283953	23.62923
443	13.55150	2.9129414	0.6535	6.284863	23.63660
444	13.52758	2.9130617	0.6656	6.287426	23.65243
445	13.50601	2.9131460	0.6657	6.289747	23.66650
446	13.49320	2.9128280	0.6625	6.291254	23.67156
447	13.49086	2.9125399	0.6595	6.291610	23.67043
448	13.48938	2.9124799	0.6445	6.291792	23.67081
449	13.48402	2.9125279	0.6263	6.292359	23.67456
450	13.48156	2.9126240	0.6171	6.292594	23.67694
451	13.48101	2.9130321	0.6112	6.292512	23.68094
452	13.47959	2.9136084	0.6234	6.292465	23.68698
453	13.47639	2.9135544	0.6203	6.292833	23.68847
454	13.47091	2.9136025	0.6295	6.293414	23.69229
455	13.46778	2.9134344	0.6294	6.293815	23.69273
456	13.46882	2.9131463	0.6385	6.293801	23.68950
457	13.46981	2.9132904	0.6384	6.293644	23.69018
458	13.46870	2.9136986	0.6445	6.293622	23.69452
459	13.46562	2.9136025	0.6568	6.293991	23.69556
460	13.45873	2.9134345	0.6568	6.294802	23.69832
461	13.45326	2.9128884	0.6537	6.295590	23.69681
462	13.45221	2.9127983	0.6476	6.295736	23.69665
463	13.45455	2.9128583	0.6294	6.295460	23.69575
464	13.46519	2.9129723	0.6205	6.294258	23.69019
465	13.47233	2.9129722	0.6265	6.293479	23.68577
466	13.47448	2.9129422	0.6236	6.293255	23.68417
467	13.47707	2.9126540	0.6204	6.293073	23.67999
468	13.48156	2.9125400	0.6144	6.292623	23.67619
469	13.48396	2.9124499	0.6084	6.292393	23.67390
470	13.48876	2.9125579	0.6084	6.291831	23.67190
471	13.49394	2.9130860	0.6235	6.291083	23.67343
472	13.49782	2.9139564	0.6417	6.290357	23.67882
473	13.49782	2.9143046	0.6570	6.290236	23.68193
474	13.49067	2.9138424	0.6691	6.291176	23.68221
475	13.48729	2.9134943	0.6842	6.291667	23.68118
476	13.48322	2.9132362	0.7660	6.292201	23.68135
477	13.48513	2.9094076	0.8750	6.293329	23.64586
478	13.49905	2.9065462	0.9842	6.292810	23.61163
479	13.51322	2.9049810	1.1083	6.291811	23.58886
480	13.52369	2.9045192	1.2354	6.290830	23.57825
481	13.52351	2.9079496	1.3657	6.289658	23.60900
482	13.50773	2.9109136	1.5020	6.290347	23.64520
483	13.49080	2.9116699	1.6473	6.291931	23.66238
484	13.47258	2.9132606	1.7867	6.293366	23.68785
485	13.45498	2.9145095	1.9411	6.294851	23.70989
486	13.44206	2.9150560	2.0985	6.296071	23.72274
487	13.43425	2.9149480	2.2469	6.296963	23.72657
488	13.42952	2.9141076	2.4105	6.297776	23.72191
489	13.42350	2.9144259	2.5648	6.298324	23.72846
490	13.41840	2.9145401	2.7193	6.298843	23.73260
491	13.41477	2.9148283	2.8768	6.299140	23.73739
492	13.41238	2.9153867	3.0373	6.299208	23.74383
493	13.40758	2.9163956	3.1949	6.299380	23.75581
494	13.39143	2.9176149	3.3735	6.300719	23.77674
495	13.36712	2.9206367	3.5704	6.302317	23.81895
496	13.34148	2.9234313	3.7793	6.304140	23.86000
497	13.31353	2.9262991	3.9942	6.306189	23.90321
498	13.29638	2.9260227	4.2183	6.308165	23.91139
499	13.28897	2.9240751	4.4637	6.309664	23.89841
500	13.29497	2.9215390	4.6878	6.309903	23.87176
501	13.30471	2.9207038	4.9330	6.309135	23.85808
502	13.31800	2.9147758	5.1723	6.309768	23.79638
503	13.34706	2.9167451	5.4266	6.305899	23.79591
504	13.30011	2.9454970	5.6659	6.300917	24.08402
505	13.07907	3.0236463	5.8960	6.297270	24.93363
506	12.69245	3.0702753	6.1141	6.322399	25.61803
507	12.29815	3.1007688	6.3473	6.354076	26.17142
508	11.96882	3.1181378	6.5714	6.383554	26.56582
509	11.67965	3.1435818	6.7833	6.405607	27.01411
510	11.43390	3.1573583	7.0164	6.427331	27.32524
511	11.23444	3.1726387	7.2831	6.443385	27.61995
512	11.07653	3.1763543	7.5344	6.459380	27.77432
513	10.94767	3.1948754	7.7616	6.466331	28.05148
514	10.79720	3.2164284	8.0068	6.474409	28.37689
515	10.57501	3.2399495	8.2643	6.489554	28.78076
516	10.29353	3.2512641	8.5034	6.516176	29.11603
517	10.04148	3.2584530	8.7578	6.541293	29.39073
518	9.80696	3.2593324	9.0060	6.567178	29.59089
519	9.60092	3.2611386	9.2484	6.589590	29.77891
520	9.42009	3.2621430	9.4846	6.609584	29.93948
521	9.26868	3.2610483	9.7237	6.627221	30.05516
522	9.13676	3.2622965	9.9690	6.641684	30.17910
523	9.03244	3.2637952	10.2022	6.652924	30.28289
524	8.95610	3.2654192	10.4294	6.660932	30.36457
525	8.90197	3.2658586	10.6686	6.666932	30.41528
526	8.86342	3.2649879	10.9199	6.671732	30.43922
527	8.83377	3.2642363	11.1802	6.675464	30.45678
528	8.80821	3.2651767	11.4467	6.677982	30.48834
529	8.78420	3.2652648	11.7254	6.680702	30.50978
530	8.76091	3.2658292	12.0191	6.683129	30.53556
531	8.73790	3.2669579	12.2945	6.685274	30.56697
532	8.71604	3.2661433	12.5733	6.688150	30.57727
533	8.69295	3.2644577	12.8761	6.691559	30.57959
534	8.66927	3.2650534	13.1516	6.694020	30.60612
535	8.63095	3.2630861	13.4241	6.699313	30.61873
536	8.55997	3.2613703	13.6543	6.708265	30.66231
537	8.48196	3.2605631	13.8996	6.717641	30.72161
538	8.41652	3.2610901	14.1176	6.724975	30.78409
539	8.36452	3.2608714	14.3387	6.731100	30.82718
540	8.32327	3.2606903	14.5598	6.735969	30.86134
541	8.29080	3.2604714	14.7899	6.739840	30.88744
542	8.26838	3.2609666	15.0169	6.742221	30.91223
543	8.25032	3.2604094	15.2410	6.744577	30.92217
544	8.22600	3.2588188	15.4772	6.748134	30.92676
545	8.19768	3.2565774	15.7376	6.752458	30.92801
546	8.16654	3.2567031	15.9768	6.756030	30.95667
547	8.13500	3.2572607	16.2190	6.759454	30.99027
548	8.11177	3.2576368	16.4553	6.761995	31.01467
549	8.09575	3.2575744	16.6945	6.763896	31.02808
550	8.08582	3.2573241	16.9337	6.765174	31.03412
551	8.08123	3.2575747	17.1730	6.765599	31.04072
552	8.07670	3.2572304	17.4242	6.766292	31.04100
553	8.07232	3.2566733	17.6665	6.767063	31.03888
554	8.06944	3.2559597	17.9209	6.767733	31.03379
555	8.06624	3.2563292	18.1691	6.767941	31.04041
556	8.06203	3.2559286	18.4174	6.768622	31.03980
557	8.06037	3.2564546	18.6566	6.768578	31.04672
558	8.05739	3.2553967	18.9200	6.769419	31.03807
559	8.05477	3.2548083	19.1714	6.770000	31.03406
560	8.05120	3.2551152	19.4259	6.770281	31.04036
561	8.04603	3.2548399	19.6923	6.771017	31.04191
562	8.04171	3.2552719	19.9465	6.771328	31.05019
563	8.03803	3.2555538	20.1980	6.771632	31.05632
564	8.03563	3.2556165	20.4432	6.771889	31.05900
565	8.03366	3.2556792	20.6854	6.772095	31.06130
566	8.02902	3.2562991	20.9185	6.772355	31.07186
567	8.02124	3.2553977	21.1578	6.773685	31.06913
568	8.01277	3.2548095	21.3970	6.774952	31.07032
569	8.00127	3.2541524	21.6332	6.776605	31.07348
570	7.98540	3.2538147	21.8573	6.778622	31.08390
571	7.96677	3.2529763	22.0996	6.781195	31.09147
572	7.94847	3.2521067	22.3448	6.783746	31.09841
573	7.93034	3.2514186	22.5961	6.786195	31.10714
574	7.91195	3.2512061	22.8415	6.788455	31.12115
575	7.89591	3.2509311	23.0957	6.790469	31.13240
576	7.88295	3.2503369	23.3442	6.792271	31.13754
577	7.87116	3.2500243	23.5955	6.793805	31.14461
578	7.85922	3.2496178	23.8467	6.795402	31.15084
579	7.84765	3.2493741	24.0948	6.796879	31.15846
580	7.83657	3.2494055	24.3313	6.798172	31.16858
581	7.82681	3.2490929	24.5795	6.799469	31.17386
582	7.81838	3.2490305	24.8066	6.800494	31.18062
583	7.81101	3.2486616	25.0489	6.801537	31.18318
584	7.80539	3.2487493	25.2759	6.802161	31.18903
585	7.79273	3.2471671	25.5213	6.804395	31.18341
586	7.76572	3.2461168	25.7481	6.808071	31.19629
587	7.73158	3.2448479	25.9906	6.812693	31.21322
588	7.69420	3.2449047	26.2329	6.817080	31.24723
589	7.66224	3.2438235	26.4749	6.821367	31.26427
590	7.64133	3.2438550	26.7173	6.823827	31.28328
591	7.62592	3.2435114	26.9594	6.825815	31.29336
592	7.61447	3.2433928	27.1957	6.827229	31.30228
593	7.60630	3.2429554	27.4561	6.828408	31.30485
594	7.59902	3.2430806	27.6863	6.829214	31.31263
595	7.59201	3.2427682	27.9375	6.830196	31.31549
596	7.58611	3.2415620	28.2101	6.831470	31.30778
597	7.58347	3.2428310	28.4432	6.831187	31.32363
598	7.57947	3.2428623	28.6733	6.831651	31.32747
599	7.57636	3.2426186	28.9097	6.832139	31.32755
600	7.57636	3.2428938	29.1337	6.832013	31.33040
601	7.57562	3.2421187	29.3728	6.832472	31.32266
602	7.57493	3.2418751	29.6211	6.832673	31.32055
603	7.57567	3.2415314	29.8664	6.832753	31.31610
604	7.57414	3.2412252	30.1117	6.833084	31.31409
605	7.56977	3.2406692	30.3691	6.833870	31.31196
606	7.56461	3.2403568	30.6174	6.834634	31.31316
607	7.55997	3.2406694	30.8626	6.835040	31.32057
608	7.55418	3.2404508	31.1018	6.835835	31.32334
609	7.54896	3.2405447	31.3320	6.836413	31.32894
610	7.54428	3.2400199	31.5802	6.837222	31.32744
611	7.54080	3.2398325	31.8226	6.837727	31.32845
612	7.53275	3.2382832	32.0587	6.839421	31.31901
613	7.51922	3.2382209	32.2889	6.841059	31.33044
614	7.50654	3.2377588	32.5127	6.842788	31.33682
615	7.49676	3.2373592	32.7461	6.844143	31.34126
616	7.49055	3.2367721	32.9913	6.845164	31.34046
617	7.48387	3.2363100	33.2336	6.846181	31.34142
618	7.47336	3.2354421	33.4788	6.847848	31.34149
619	7.46122	3.2345804	33.7271	6.849705	31.34310
620	7.45008	3.2339000	33.9662	6.851358	31.34575
621	7.44146	3.2337753	34.2114	6.852447	31.35208
622	7.43448	3.2335569	34.4477	6.853387	31.35594
623	7.42912	3.2336194	34.6809	6.853999	31.36135
624	7.42482	3.2335883	34.9140	6.854531	31.36480
625	7.41999	3.2337133	35.1532	6.855051	31.37041
626	7.41668	3.2344877	35.3712	6.855080	31.38162
627	7.41411	3.2346065	35.5984	6.855334	31.38512
628	7.41211	3.2343006	35.8286	6.855722	31.38353
629	7.41017	3.2339323	36.0738	6.856134	31.38122
630	7.40802	3.2338075	36.3102	6.856454	31.38172
631	7.40466	3.2336827	36.5554	6.856918	31.38331
632	7.40031	3.2335580	36.8096	6.857502	31.38579
633	7.39532	3.2334956	37.0579	6.858130	31.38952
634	7.38997	3.2333459	37.3063	6.858844	31.39264
635	7.38520	3.2333148	37.5455	6.859432	31.39652
636	7.38200	3.2331276	37.7999	6.859908	31.39729
637	7.37954	3.2330341	38.0421	6.860251	31.39841
638	7.37639	3.2327907	38.2965	6.860747	31.39853
639	7.37214	3.2320166	38.5721	6.861629	31.39392
640	7.36742	3.2325100	38.8143	6.861960	31.40339
641	7.36118	3.2328223	39.0474	6.862559	31.41230
642	7.35547	3.2319234	39.2836	6.863675	31.40770
643	7.35091	3.2310308	39.5259	6.864651	31.40212
644	7.34646	3.2304754	39.7711	6.865453	31.40006
645	7.33975	3.2303507	40.0225	6.866318	31.40469
646	7.33289	3.2303447	40.2738	6.867145	31.41073
647	7.32791	3.2304759	40.5190	6.867681	31.41655
648	7.32482	3.2305072	40.7645	6.868040	31.41957
649	7.32325	3.2302264	41.0128	6.868367	31.41786
650	7.32058	3.2297958	41.2639	6.868897	31.41553
651	7.31351	3.2290908	41.5062	6.870084	31.41424
652	7.30466	3.2287165	41.7485	6.871325	31.41812
653	7.29639	3.2283797	41.9726	6.872479	31.42190
654	7.28739	3.2276747	42.2117	6.873898	31.42236
655	7.27876	3.2271508	42.4449	6.875187	31.42444
656	7.27353	3.2269325	42.6750	6.875922	31.42674
657	7.26945	3.2267454	42.9052	6.876504	31.42832
658	7.26506	3.2263151	43.1383	6.877241	31.42756
659	7.26145	3.2260719	43.3837	6.877795	31.42810
660	7.25789	3.2253920	43.6289	6.878552	31.42389
661	7.25324	3.2249306	43.8923	6.879336	31.42301
662	7.24728	3.2245315	44.1558	6.880247	31.42400
663	7.23787	3.2241325	44.4070	6.881571	31.42813
664	7.22867	3.2242574	44.6522	6.882617	31.43773
665	7.22058	3.2241952	44.8976	6.883622	31.44431
666	7.21420	3.2240706	45.1336	6.884450	31.44865
667	7.20997	3.2239772	45.3640	6.885007	31.45138
668	7.20606	3.2238276	45.5972	6.885553	31.45322
669	7.20204	3.2235782	45.8243	6.886160	31.45409
670	7.19812	3.2232416	46.0545	6.886797	31.45391
671	7.19139	3.2224747	46.2784	6.887979	31.45164
672	7.18246	3.2217328	46.5026	6.889412	31.45165
673	7.17317	3.2210907	46.7388	6.890841	31.45305
674	7.16284	3.2203490	46.9689	6.892445	31.45433
675	7.15111	3.2193954	47.2142	6.894320	31.45459
676	7.14026	3.2190154	47.4685	6.895812	31.46024
677	7.13020	3.2185107	47.7199	6.897270	31.46384
678	7.12056	3.2183239	47.9560	6.898525	31.47049
679	7.10863	3.2172833	48.2103	6.900469	31.46999
680	7.09102	3.2156260	48.4738	6.903397	31.46797
681	7.07254	3.2151340	48.7192	6.905866	31.47939
682	7.05427	3.2147044	48.9583	6.908280	31.49130
683	7.03867	3.2143994	49.1915	6.910313	31.50214
684	7.02738	3.2142438	49.4215	6.911754	31.51066
685	7.01922	3.2142440	49.6488	6.912743	31.51802
686	7.01304	3.2138765	49.8880	6.913673	31.51958
687	7.00566	3.2133534	50.1151	6.914823	31.52055
688	6.99719	3.2127743	50.3513	6.916132	31.52190
689	6.99038	3.2124070	50.6026	6.917138	31.52402
690	6.98275	3.2115165	50.8479	6.918500	31.52122
691	6.96769	3.2102277	51.0961	6.920954	31.52088
692	6.95040	3.2098544	51.3446	6.923230	31.53253
693	6.93598	3.2097114	51.5959	6.925050	31.54408
694	6.92493	3.2095248	51.8441	6.926482	31.55207
695	6.91648	3.2094938	52.0863	6.927525	31.55937
696	6.90989	3.2093134	52.3165	6.928415	31.56334
697	6.90460	3.2093758	52.5436	6.929029	31.56877
698	6.90061	3.2093136	52.7647	6.929547	31.57165
699	6.89740	3.2091581	52.9920	6.930017	31.57280
700	6.89507	3.2092516	53.2038	6.930258	31.57587
701	6.89273	3.2090400	53.4370	6.930649	31.57559
702	6.89056	3.2086105	53.6610	6.931128	31.57281
703	6.88776	3.2082744	53.9033	6.931637	31.57160
704	6.88154	3.2071105	54.1576	6.932967	31.56451
705	6.86932	3.2062082	54.4089	6.934897	31.56578
706	6.85280	3.2055799	54.6513	6.937213	31.57399
707	6.83598	3.2045720	54.9025	6.939755	31.57834
708	6.81399	3.2024071	55.1569	6.943496	31.57481
709	6.78265	3.2000252	55.3931	6.948483	31.57750
710	6.74644	3.1981042	55.6263	6.953844	31.58973
711	6.71201	3.1970974	55.8475	6.958541	31.61034
712	6.68338	3.1962461	56.0897	6.962458	31.62731
713	6.66055	3.1953948	56.3198	6.965672	31.63896
714	6.64056	3.1944814	56.5469	6.968572	31.64730
715	6.62284	3.1939596	56.7770	6.971000	31.65785
716	6.60328	3.1921702	57.0042	6.974288	31.65619
717	6.57360	3.1896421	57.2554	6.979187	31.65577
718	6.53926	3.1882141	57.5129	6.984113	31.67175
719	6.50603	3.1873326	57.7763	6.988635	31.69273
720	6.47708	3.1866624	58.0278	6.992529	31.71210
721	6.45369	3.1860294	58.3002	6.995725	31.72672
722	6.43272	3.1858434	58.5485	6.998401	31.74405
723	6.41018	3.1853098	58.7876	7.001447	31.75903
724	6.38923	3.1848755	59.0300	7.004248	31.77363
725	6.37214	3.1845716	59.2601	7.006510	31.78610
726	6.35643	3.1846339	59.4842	7.008418	31.80134
727	6.34134	3.1844231	59.7113	7.010388	31.81298
728	6.32805	3.1842991	59.9353	7.012094	31.82392
729	6.31675	3.1841503	60.1717	7.013567	31.83272
730	6.30750	3.1840264	60.4079	7.014775	31.83988
731	6.29932	3.1836789	60.6471	7.015965	31.84356
732	6.29181	3.1834494	60.8923	7.017013	31.84793
733	6.28482	3.1830896	61.1527	7.018064	31.85036
734	6.27884	3.1828725	61.4193	7.018917	31.85342
735	6.27307	3.1829968	61.6766	7.019572	31.86008
736	6.26771	3.1829969	61.9249	7.020239	31.86498
737	6.26302	3.1832080	62.1763	7.020717	31.87160
738	6.25995	3.1835805	62.4154	7.020911	31.87848
739	6.25699	3.1838165	62.6427	7.021162	31.88376
740	6.25393	3.1837235	62.8758	7.021592	31.88549
741	6.25194	3.1835746	63.0999	7.021918	31.88560
742	6.24924	3.1833327	63.3301	7.022380	31.88534
743	6.24526	3.1831466	63.5510	7.022971	31.88690
744	6.23975	3.1823026	63.7903	7.024086	31.88259
745	6.23046	3.1800627	64.0325	7.026379	31.86632
746	6.20986	3.1777863	64.2899	7.030091	31.86024
747	6.18672	3.1769059	64.5383	7.033410	31.87204
748	6.16706	3.1763046	64.7896	7.036158	31.88368
749	6.15082	3.1759080	65.0469	7.038379	31.89440
750	6.13870	3.1753997	65.3014	7.040147	31.90000
751	6.12919	3.1750340	65.5528	7.041519	31.90475
752	6.12089	3.1746373	65.7858	7.042756	31.90802
753	6.11331	3.1742159	66.0281	7.043918	31.91034
754	6.10614	3.1737324	66.2582	7.045061	31.91159
755	6.09902	3.1737016	66.4824	7.045966	31.91783
756	6.09348	3.1734909	66.7033	7.046767	31.92059
757	6.08860	3.1729517	66.9427	7.047654	31.91906
758	6.08504	3.1726543	67.1909	7.048255	31.91898
759	6.08301	3.1725862	67.4272	7.048547	31.92002
760	6.08088	3.1723445	67.6724	7.048942	31.91922
761	6.07889	3.1720099	67.9298	7.049366	31.91723
762	6.07742	3.1713158	68.2113	7.049911	31.91075
763	6.07493	3.1712292	68.4780	7.050271	31.91200
764	6.07000	3.1710000	68.7383	7.051007	31.91396
765	6.06309	3.1705911	68.9807	7.052082	31.91578
766	6.05400	3.1698972	69.2259	7.053575	31.91649
767	6.04394	3.1694140	69.4771	7.055080	31.92045
768	6.03277	3.1690239	69.7165	7.056676	31.92650
769	6.01998	3.1680265	69.9589	7.058787	31.92730
770	6.00309	3.1672400	70.1950	7.061302	31.93433
771	5.98564	3.1666394	70.4280	7.063792	31.94396
772	5.97048	3.1662804	70.6733	7.065873	31.95413
773	5.95766	3.1655559	70.9186	7.067852	31.95802
774	5.94398	3.1643794	71.1638	7.070173	31.95766
775	5.93076	3.1639647	71.4274	7.072044	31.96538
776	5.91840	3.1629990	71.6906	7.074093	31.96612
777	5.90656	3.1626091	71.9482	7.075782	31.97283
778	5.89735	3.1621573	72.2148	7.077173	31.97635
779	5.88905	3.1617056	72.4751	7.078451	31.97901
780	5.88019	3.1610124	72.7294	7.079924	31.97949
781	5.87048	3.1605359	72.9838	7.081392	31.98322
782	5.85855	3.1591436	73.2351	7.083615	31.97878
783	5.83874	3.1570709	73.4743	7.087180	31.97418
784	5.81514	3.1560503	73.7197	7.090675	31.98495
785	5.79596	3.1555124	73.9589	7.093368	31.99697
786	5.78092	3.1548879	74.1952	7.095588	32.00410
787	5.76855	3.1544613	74.4494	7.097369	32.01090
788	5.75973	3.1542821	74.7037	7.098577	32.01714
789	5.75140	3.1533792	74.9611	7.100100	32.01476
790	5.74157	3.1527672	75.2216	7.101662	32.01709
791	5.73154	3.1522417	75.4881	7.103205	32.02057
792	5.72211	3.1516112	75.7547	7.104726	32.02230
793	5.71229	3.1506840	76.0150	7.106454	32.02107
794	5.70030	3.1500845	76.2604	7.108284	32.02559
795	5.68504	3.1489102	76.5117	7.110827	32.02675
796	5.66767	3.1489414	76.7540	7.113005	32.04349
797	5.65474	3.1504747	77.0021	7.113835	32.07295
798	5.64931	3.1514022	77.2503	7.114038	32.08846
799	5.64775	3.1516434	77.5051	7.114113	32.09254
800	5.64780	3.1518166	77.7439	7.114021	32.09433
801	5.64815	3.1519713	78.0015	7.113902	32.09561
802	5.64825	3.1517611	78.2802	7.114006	32.09301
803	5.64890	3.1517612	78.5527	7.113930	32.09225
804	5.64976	3.1522003	78.8282	7.113597	32.09625
805	5.64991	3.1527508	79.0947	7.113295	32.10218
806	5.65117	3.1538022	79.3579	7.112590	32.11271
807	5.65534	3.1543403	79.6214	7.111787	32.11466
808	5.66027	3.1545816	79.8818	7.111045	32.11256
809	5.66420	3.1549898	80.1422	7.110343	32.11329
810	5.66737	3.1550332	80.3906	7.109926	32.11063
811	5.66999	3.1556333	80.6359	7.109287	32.11478
812	5.67462	3.1568644	80.8782	7.108064	32.12412
813	5.68036	3.1573470	81.1235	7.107094	32.12397
814	5.68499	3.1574894	81.3626	7.106443	32.12104
815	5.68831	3.1575266	81.6172	7.106011	32.11817
816	5.69038	3.1575575	81.8743	7.105741	32.11642
817	5.69138	3.1574957	82.1348	7.105653	32.11464
818	5.69108	3.1573473	82.3889	7.105774	32.11313
819	5.68887	3.1570195	82.6527	7.106231	32.11142
820	5.68454	3.1568649	82.9131	7.106862	32.11368
821	5.68066	3.1569579	83.1616	7.107307	32.11830
822	5.67744	3.1569889	83.4187	7.107702	32.12159
823	5.67452	3.1568653	83.6672	7.108140	32.12286
824	5.67195	3.1570819	83.9184	7.108355	32.12763
825	5.66878	3.1565066	84.1727	7.109061	32.12405
826	5.66053	3.1554860	84.4151	7.110642	32.12029
827	5.64825	3.1541935	84.6572	7.112872	32.11731
828	5.63552	3.1537174	84.9148	7.114732	32.12395
829	5.62486	3.1534022	85.1630	7.116247	32.13044
830	5.61662	3.1532045	85.4233	7.117396	32.13595
831	5.60993	3.1530871	85.6748	7.118307	32.14089
832	5.60460	3.1530563	85.9382	7.119001	32.14550
833	5.60043	3.1530564	86.1987	7.119533	32.14936
834	5.59777	3.1530256	86.4469	7.119891	32.15143
835	5.59596	3.1530257	86.7043	7.120125	32.15303
836	5.59460	3.1531186	86.9498	7.120252	32.15526
837	5.59330	3.1531187	87.1888	7.120423	32.15639
838	5.59149	3.1529641	87.4311	7.120738	32.15625
839	5.58933	3.1529086	87.6762	7.121045	32.15757
840	5.58672	3.1527541	87.9216	7.121462	32.15820
841	5.58310	3.1525749	88.1549	7.122018	32.15952
842	5.57963	3.1522472	88.4153	7.122634	32.15900
843	5.57491	3.1515672	88.6940	7.123595	32.15570
844	5.56698	3.1510171	88.9845	7.124894	32.15692
845	5.55694	3.1507452	89.2509	7.126312	32.16332
846	5.54539	3.1504796	89.5116	7.127917	32.17123
847	5.53461	3.1501768	89.7689	7.129446	32.17800
848	5.52568	3.1498494	90.0231	7.130754	32.18272
849	5.51880	3.1497012	90.2896	7.131708	32.18749
850	5.51379	3.1495467	90.5470	7.132430	32.19042
851	5.50887	3.1493676	90.7954	7.133152	32.19298
852	5.50356	3.1491328	91.0559	7.133954	32.19528
853	5.49834	3.1490093	91.2979	7.134685	32.19876
854	5.49388	3.1488920	91.5402	7.135317	32.20159
855	5.49058	3.1487685	91.7947	7.135807	32.20324
856	5.48797	3.1486264	92.0430	7.136218	32.20400
857	5.48591	3.1485029	92.3004	7.136550	32.20445
858	5.48376	3.1482620	92.5518	7.136956	32.20366
859	5.48125	3.1480519	92.8092	7.137391	32.20356
860	5.47820	3.1478419	93.0756	7.137895	32.20398
861	5.47459	3.1477432	93.3360	7.138411	32.20619
862	5.47188	3.1477556	93.5995	7.138753	32.20879
863	5.46953	3.1476630	93.8599	7.139106	32.20987
864	5.46652	3.1475704	94.1051	7.139542	32.21159
865	5.46387	3.1475582	94.3626	7.139890	32.21387
866	5.46101	3.1472740	94.6110	7.140409	32.21326
867	5.45706	3.1470949	94.8500	7.141011	32.21491
868	5.45370	3.1470332	95.1014	7.141474	32.21731
869	5.45095	3.1470024	95.3436	7.141845	32.21948
870	5.44904	3.1469531	95.5889	7.142118	32.22063
871	5.44739	3.1468234	95.8464	7.142403	32.22062
872	5.44504	3.1466134	96.1007	7.142818	32.22037
873	5.44048	3.1464652	96.3611	7.143481	32.22293
874	5.43478	3.1464839	96.6215	7.144200	32.22849
875	5.42967	3.1464964	96.8698	7.144847	32.23341
876	5.42552	3.1464965	97.1333	7.145379	32.23727
877	5.42176	3.1464348	97.3816	7.145894	32.24006
878	5.41801	3.1464349	97.6390	7.146376	32.24354
879	5.41446	3.1464536	97.8963	7.146822	32.24703
880	5.41070	3.1464104	98.1447	7.147327	32.25003
881	5.40660	3.1462870	98.3960	7.147919	32.25245
882	5.40205	3.1462562	98.6412	7.148519	32.25635
883	5.39820	3.1461018	98.9198	7.149096	32.25816
884	5.39550	3.1461081	99.1863	7.149442	32.26070
885	5.39385	3.1461391	99.4438	7.149641	32.26251
886	5.39200	3.1460774	99.7132	7.149915	32.26346
887	5.38970	3.1460713	99.9648	7.150216	32.26548
888	5.38680	3.1460467	100.2281	7.150603	32.26786
889	5.38395	3.1460468	100.4824	7.150971	32.27047
890	5.38140	3.1460778	100.7397	7.151284	32.27315
891	5.37940	3.1460779	100.9942	7.151543	32.27495
892	5.37800	3.1460719	101.2485	7.151730	32.27610
893	5.37685	3.1461090	101.4999	7.151862	32.27751
894	5.37615	3.1461400	101.7392	7.151940	32.27841
895	5.37570	3.1461092	101.9845	7.152019	32.27838
896	5.37505	3.1460722	102.2267	7.152127	32.27846
897	5.37480	3.1460784	102.4720	7.152161	32.27865
898	5.37475	3.1460476	102.7234	7.152190	32.27823
899	5.37485	3.1459303	102.9808	7.152246	32.27667
900	5.37510	3.1458500	103.2442	7.152263	32.27539
901	5.37535	3.1458687	103.5016	7.152227	32.27523
902	5.37535	3.1459305	103.7561	7.152200	32.27581
903	5.37510	3.1458997	104.0103	7.152254	32.27557
904	5.37500	3.1458998	104.2677	7.152273	32.27554
905	5.37500	3.1459184	104.5252	7.152269	32.27563
906	5.37475	3.1459617	104.7765	7.152283	32.27624
907	5.37435	3.1460236	105.0248	7.152307	32.27720
908	5.37400	3.1459928	105.2734	7.152374	32.27706
909	5.37405	3.1459805	105.5276	7.152380	32.27675
910	5.37440	3.1459929	105.7729	7.152334	32.27643
911	5.37435	3.1459930	106.0300	7.152347	32.27636
912	5.37380	3.1459622	106.2876	7.152439	32.27641
913	5.37340	3.1459808	106.5421	7.152486	32.27688
914	5.37355	3.1459624	106.7994	7.152482	32.27640
915	5.37300	3.1459315	107.0507	7.152574	32.27645
916	5.37125	3.1459007	107.2959	7.152819	32.27766
917	5.36940	3.1459008	107.5444	7.153059	32.27932
918	5.36790	3.1458515	107.7806	7.153282	32.28009
919	5.36640	3.1458145	108.0257	7.153497	32.28099
920	5.36520	3.1458146	108.2621	7.153655	32.28203
921	5.36370	3.1456602	108.5042	7.153934	32.28160
922	5.36180	3.1455058	108.7496	7.154263	32.28155
923	5.35991	3.1454565	108.9949	7.154536	32.28270
924	5.35871	3.1452712	109.2553	7.154794	32.28162
925	5.35741	3.1452466	109.5127	7.154978	32.28246
926	5.35616	3.1452529	109.7733	7.155139	32.28361
927	5.35516	3.1453333	110.0275	7.155229	32.28536
928	5.35511	3.1453334	110.2908	7.155242	32.28528
929	5.35536	3.1453643	110.5395	7.155199	32.28526
930	5.35506	3.1453026	110.7936	7.155276	32.28473
931	5.35411	3.1451915	111.0511	7.155462	32.28425
932	5.35291	3.1452163	111.3086	7.155607	32.28556
933	5.35241	3.1451237	111.5597	7.155726	32.28486
934	5.35061	3.1449446	111.8050	7.156056	32.28444
935	5.34766	3.1447841	112.0625	7.156522	32.28532
936	5.34372	3.1445248	112.3048	7.157168	32.28606
937	5.33872	3.1443766	112.5559	7.157888	32.28906
938	5.33258	3.1440802	112.8104	7.158834	32.29148
939	5.32669	3.1439321	113.0711	7.159668	32.29534
940	5.32105	3.1438705	113.3222	7.160425	32.29995
941	5.31630	3.1438706	113.5768	7.161034	32.30440
942	5.31136	3.1439881	113.8310	7.161605	32.31038
943	5.30662	3.1442291	114.0853	7.162085	32.31757
944	5.30303	3.1445011	114.3368	7.162403	32.32400
945	5.30113	3.1447668	114.5882	7.162508	32.32873
946	5.30013	3.1450388	114.8332	7.162495	32.33267
947	5.29899	3.1451562	115.0846	7.162584	32.33499
948	5.29789	3.1453169	115.3239	7.162643	32.33776
949	5.29689	3.1456383	115.5722	7.162603	32.34226
950	5.29709	3.1459041	115.8266	7.162441	32.34496
951	5.29784	3.1460524	116.0748	7.162272	32.34581
952	5.29834	3.1461390	116.3261	7.162168	32.34619
953	5.29874	3.1462936	116.5865	7.162041	32.34743
954	5.29869	3.1464420	116.8350	7.161973	32.34905
955	5.29914	3.1472207	117.0984	7.161505	32.35735
956	5.30118	3.1483332	117.3557	7.160655	32.36791
957	5.30462	3.1492109	117.6132	7.159753	32.37444
958	5.30787	3.1495015	117.8554	7.159191	32.37450
959	5.30971	3.1495881	118.1009	7.158916	32.37358
960	5.31056	3.1496809	118.3489	7.158764	32.37369
961	5.31061	3.1497490	118.5881	7.158727	32.37430
962	5.31016	3.1499221	118.8276	7.158697	32.37658
963	5.30932	3.1500088	119.0667	7.158764	32.37827
964	5.30852	3.1501016	119.3151	7.158821	32.37997
965	5.30767	3.1501017	119.5724	7.158935	32.38067
966	5.30732	3.1501574	119.8358	7.158956	32.38151
967	5.30662	3.1502502	120.1053	7.159001	32.38311
968	5.30557	3.1503368	120.3537	7.159094	32.38498
969	5.30462	3.1503987	120.6169	7.159187	32.38647
970	5.30318	3.1504421	120.8682	7.159354	32.38824
971	5.30188	3.1504917	121.1257	7.159498	32.38993
972	5.30078	3.1499477	121.3801	7.159935	32.38467
973	5.29894	3.1496511	121.6315	7.160334	32.38296
974	5.29509	3.1492927	121.8678	7.161020	32.38247
975	5.28941	3.1501892	122.1251	7.161269	32.39805
976	5.28212	3.1501893	122.3703	7.162200	32.40498
977	5.27564	3.1503131	122.6128	7.162964	32.41254
978	5.27140	3.1506409	122.8731	7.163333	32.42025
979	5.26931	3.1508883	123.1213	7.163472	32.42497
980	5.26801	3.1509997	123.3821	7.163584	32.42737
981	5.26582	3.1509688	123.6332	7.163885	32.42901
982	5.26312	3.1509380	123.8904	7.164250	32.43114
983	5.26038	3.1509134	124.1510	7.164618	32.43339
984	5.25769	3.1509815	124.3992	7.164929	32.43665
985	5.25550	3.1511486	124.6534	7.165125	32.44055
986	5.25345	3.1512414	124.9168	7.165341	32.44346
987	5.25196	3.1512724	125.1684	7.165520	32.44514
988	5.25036	3.1513591	125.4196	7.165683	32.44755
989	5.24787	3.1513963	125.6679	7.165985	32.45026
990	5.24533	3.1514829	125.9252	7.166268	32.45359
991	5.24333	3.1514830	126.1768	7.166528	32.45540
992	5.24164	3.1514831	126.4309	7.166749	32.45691
993	5.24074	3.1514894	126.6853	7.166866	32.45773
994	5.23985	3.1514524	126.9397	7.167006	32.45805
995	5.23815	3.1515390	127.1941	7.167181	32.46055
996	5.23616	3.1517803	127.4425	7.167310	32.46511
997	5.23417	3.1519040	127.6908	7.167503	32.46833
998	5.23227	3.1520278	127.9421	7.167683	32.47146
999	5.23028	3.1521701	128.1873	7.167866	32.47489
1000	5.22854	3.1522320	128.4297	7.168060	32.47717
1001	5.22724	3.1523249	128.6840	7.168181	32.47936
1002	5.22599	3.1523497	128.9261	7.168332	32.48073
1003	5.22515	3.1524426	129.1745	7.168396	32.48249
1004	5.22390	3.1524736	129.4258	7.168543	32.48393
1005	5.22251	3.1525046	129.6862	7.168710	32.48550
1006	5.22131	3.1524737	129.9498	7.168885	32.48618
1007	5.22037	3.1525975	130.2222	7.168945	32.48838
1008	5.21927	3.1528635	130.4856	7.168948	32.49235
1009	5.21758	3.1530120	130.7520	7.169090	32.49555
1010	5.21598	3.1532842	131.0033	7.169152	32.50008
1011	5.21479	3.1534637	131.2519	7.169213	32.50317
1012	5.21404	3.1537730	131.5031	7.169148	32.50730
1013	5.21349	3.1539463	131.7483	7.169130	32.50968
1014	5.21329	3.1540329	131.9876	7.169114	32.51075
1015	5.21300	3.1542124	132.2297	7.169061	32.51297
1016	5.21265	3.1543609	132.4719	7.169032	32.51488
1017	5.21225	3.1547878	132.7142	7.168858	32.52002
1018	5.21215	3.1555054	132.9625	7.168490	32.52818
1019	5.21170	3.1559571	133.2077	7.168310	32.53365
1020	5.21140	3.1564088	133.4561	7.168111	32.53898
1021	5.21090	3.1565883	133.7195	7.168084	32.54138
1022	5.21051	3.1567863	133.9709	7.168034	32.54390
1023	5.21021	3.1573371	134.2253	7.167781	32.55035
1024	5.21006	3.1584819	134.4766	7.167190	32.56344
1025	5.20966	3.1600725	134.7158	7.166390	32.58187
1026	5.20936	3.1616697	134.9580	7.165574	32.60028
1027	5.20921	3.1624003	135.2061	7.165206	32.60865
1028	5.20901	3.1630257	135.4517	7.164900	32.61586
1029	5.20846	3.1635645	135.7031	7.164686	32.62242
1030	5.20807	3.1640785	135.9512	7.164466	32.62856
1031	5.20727	3.1648031	136.1903	7.164183	32.63749
1032	5.20617	3.1654535	136.4296	7.163977	32.64587
1033	5.20518	3.1660048	136.6780	7.163813	32.65301
1034	5.20418	3.1664323	136.9293	7.163715	32.65874
1035	5.20334	3.1667607	137.1775	7.163651	32.66320
1036	5.20244	3.1671820	137.4228	7.163544	32.66876
1037	5.20159	3.1676343	137.6682	7.163414	32.67463
1038	5.20070	3.1679999	137.9165	7.163336	32.67956
1039	5.19990	3.1682664	138.1466	7.163299	32.68327
1040	5.19920	3.1685081	138.3829	7.163263	32.68659
1041	5.19875	3.1689357	138.6249	7.163096	32.69180
1042	5.19915	3.1690845	138.8704	7.162971	32.69298
1043	5.19950	3.1692333	139.1155	7.162852	32.69422
1044	5.19975	3.1693759	139.3575	7.162750	32.69549
1045	5.20015	3.1695681	139.6091	7.162602	32.69717
1046	5.20040	3.1698718	139.8664	7.162413	32.70026
1047	5.20055	3.1700825	140.1331	7.162287	32.70239
1048	5.20045	3.1703553	140.3996	7.162159	32.70547
1049	5.20040	3.1705537	140.6657	7.162065	32.70766
1050	5.20030	3.1707149	140.9142	7.161996	32.70947
1051	5.19995	3.1708637	141.1776	7.161967	32.71138
1052	5.19980	3.1710497	141.4288	7.161891	32.71353
1053	5.19945	3.1713163	141.6679	7.161798	32.71679
1054	5.19925	3.1714713	141.9132	7.161745	32.71864
1055	5.19885	3.1718929	142.1557	7.161574	32.72372
1056	5.19861	3.1724384	142.4007	7.161318	32.73008
1057	5.19816	3.1726493	142.6430	7.161267	32.73280
1058	5.19791	3.1726803	142.8852	7.161288	32.73328
1059	5.19751	3.1728292	143.1337	7.161264	32.73525
1060	5.19731	3.1731330	143.3788	7.161131	32.73879
1061	5.19701	3.1732819	143.6301	7.161095	32.74066
1062	5.19681	3.1733254	143.8784	7.161103	32.74123
1063	5.19656	3.1734680	144.1266	7.161063	32.74298
1064	5.19637	3.1734929	144.3842	7.161081	32.74333
1065	5.19612	3.1735240	144.6233	7.161102	32.74380
1066	5.19592	3.1737349	144.8625	7.161019	32.74629
1067	5.19567	3.1738279	145.1078	7.161006	32.74747
1068	5.19507	3.1740636	145.3470	7.160961	32.75063
1069	5.19447	3.1742807	145.5864	7.160925	32.75358
1070	5.19373	3.1745536	145.8344	7.160879	32.75730
1071	5.19298	3.1749753	146.0736	7.160752	32.76274
1072	5.19213	3.1753412	146.3129	7.160668	32.76763
1073	5.19139	3.1756451	146.5521	7.160604	32.77171
1074	5.19034	3.1761723	146.8095	7.160459	32.77864
1075	5.18925	3.1765197	147.0487	7.160416	32.78356
1076	5.18800	3.1769725	147.2939	7.160336	32.78983
1077	5.18646	3.1773696	147.5423	7.160323	32.79576
1078	5.18502	3.1777294	147.7814	7.160318	32.80117
1079	5.18352	3.1779156	148.0238	7.160412	32.80464
1080	5.18233	3.1780335	148.2661	7.160506	32.80704
1081	5.18153	3.1781205	148.4989	7.160565	32.80870
1082	5.18104	3.1782136	148.7444	7.160584	32.81013
1083	5.18064	3.1781888	148.9895	7.160653	32.81011
1084	5.18039	3.1782758	149.2229	7.160644	32.81123
1085	5.18009	3.1782758	149.4681	7.160687	32.81140
1086	5.18004	3.1783379	149.7134	7.160666	32.81204
1087	5.17984	3.1784063	149.9706	7.160660	32.81289
1088	5.17974	3.1784870	150.2189	7.160635	32.81378
1089	5.17954	3.1785491	150.4763	7.160633	32.81456
1090	5.17934	3.1786422	150.7306	7.160614	32.81569
1091	5.17914	3.1787043	150.9851	7.160612	32.81647
1092	5.17914	3.1787602	151.2332	7.160588	32.81699
1093	5.17914	3.1787913	151.4877	7.160577	32.81721
1094	5.17905	3.1788224	151.7358	7.160579	32.81754
1095	5.17870	3.1788225	151.9779	7.160628	32.81776
1096	5.17860	3.1788536	152.2172	7.160630	32.81810
1097	5.17830	3.1789467	152.4626	7.160623	32.81933
1098	5.17795	3.1790337	152.7077	7.160626	32.82054
1099	5.17770	3.1790648	152.9440	7.160647	32.82102
1100	5.17745	3.1791269	153.1953	7.160651	32.82185
1101	5.17725	3.1791083	153.4372	7.160692	32.82171
1102	5.17730	3.1791891	153.6860	7.160648	32.82246
1103	5.17705	3.1792760	153.9311	7.160638	32.82358
1104	5.17671	3.1793381	154.1702	7.160655	32.82451
1105	5.17636	3.1794002	154.4157	7.160671	32.82544
1106	5.17616	3.1794313	154.6640	7.160685	32.82587
1107	5.17586	3.1794624	154.9120	7.160712	32.82639
1108	5.17571	3.1794625	155.1422	7.160737	32.82642
1109	5.17556	3.1794874	155.3995	7.160748	32.82672
1110	5.17546	3.1794875	155.6386	7.160766	32.82670
1111	5.17546	3.1795186	155.8930	7.160756	32.82693
1112	5.17531	3.1795186	156.1413	7.160780	32.82695
1113	5.17521	3.1795187	156.3898	7.160799	32.82693
1114	5.17516	3.1795622	156.6290	7.160787	32.82735
1115	5.17501	3.1795499	156.8680	7.160818	32.82724
1116	5.17477	3.1796120	157.1134	7.160822	32.82807
1117	5.17442	3.1796741	157.3524	7.160839	32.82900
1118	5.17412	3.1797052	157.5915	7.160865	32.82953
1119	5.17362	3.1797363	157.8339	7.160917	32.83025
1120	5.17312	3.1797922	158.0761	7.160956	32.83126
1121	5.17278	3.1798171	158.3242	7.160992	32.83176
1122	5.17258	3.1798234	158.5574	7.161020	32.83191
1123	5.17218	3.1798855	158.7937	7.161042	32.83289
1124	5.17193	3.1798856	159.0360	7.161079	32.83302
1125	5.17168	3.1799477	159.2691	7.161083	32.83386
1126	5.17138	3.1800967	159.5172	7.161046	32.83573
1127	5.17103	3.1803388	159.7655	7.160966	32.83871
1128	5.17044	3.1804878	160.0138	7.160967	32.84088
1129	5.16999	3.1807050	160.2623	7.160913	32.84368
1130	5.16964	3.1808850	160.5134	7.160866	32.84596
1131	5.16909	3.1810961	160.7585	7.160827	32.84878
1132	5.16845	3.1813692	161.0070	7.160767	32.85242
1133	5.16810	3.1816113	161.2553	7.160687	32.85541
1134	5.16790	3.1817665	161.4973	7.160634	32.85726
1135	5.16745	3.1819590	161.7487	7.160593	32.85977
1136	5.16695	3.1823128	161.9939	7.160471	32.86419
1137	5.16621	3.1826728	162.2361	7.160377	32.86892
1138	5.16541	3.1830081	162.4784	7.160303	32.87341
1139	5.16457	3.1832502	162.7176	7.160285	32.87689
1140	5.16392	3.1834303	162.9598	7.160276	32.87947
1141	5.16322	3.1839207	163.2079	7.160105	32.88564
1142	5.16238	3.1844236	163.4502	7.159947	32.89211
1143	5.16133	3.1850135	163.6861	7.159767	32.89976
1144	5.16044	3.1854047	163.9285	7.159675	32.90500
1145	5.15974	3.1855910	164.1648	7.159668	32.90770
1146	5.15905	3.1858022	164.4069	7.159648	32.91068
1147	5.15845	3.1859513	164.6431	7.159649	32.91286
1148	5.15815	3.1860755	164.8762	7.159625	32.91445
1149	5.15785	3.1861936	165.1247	7.159605	32.91597
1150	5.15770	3.1862868	165.3606	7.159579	32.91707
1151	5.15755	3.1863489	165.5998	7.159570	32.91781
1152	5.15740	3.1864359	165.8393	7.159548	32.91883
1153	5.15740	3.1864981	166.0752	7.159520	32.91942
1154	5.15731	3.1865913	166.3111	7.159488	32.92047
1155	5.15716	3.1866845	166.5504	7.159462	32.92156
1156	5.15716	3.1867405	166.7927	7.159438	32.92208
1157	5.15716	3.1868026	167.0258	7.159410	32.92267
1158	5.15691	3.1868648	167.2683	7.159413	32.92351
1159	5.15686	3.1869580	167.5103	7.159375	32.92450
1160	5.15681	3.1869829	167.7435	7.159374	32.92472
1161	5.15671	3.1872314	167.9857	7.159258	32.92754
1162	5.15661	3.1878649	168.2250	7.158935	32.93477
1163	5.15611	3.1886848	168.4639	7.158561	32.94452
1164	5.15566	3.1899023	168.6970	7.157967	32.95878
1165	5.15517	3.1910267	168.9334	7.157429	32.97203
1166	5.15477	3.1914803	169.1723	7.157240	32.97750
1167	5.15417	3.1917600	169.4088	7.157170	32.98117
1168	5.15392	3.1921267	169.6450	7.157010	32.98549
1169	5.15358	3.1922759	169.8900	7.156979	32.98742
1170	5.15338	3.1924872	170.1291	7.156896	32.98991
1171	5.15313	3.1927358	170.3743	7.156799	32.99288
1172	5.15308	3.1928540	170.6074	7.156747	32.99417
1173	5.15283	3.1930094	170.8560	7.156701	32.99607
1174	5.15253	3.1931524	171.0918	7.156667	32.99788
1175	5.15233	3.1933389	171.3314	7.156597	33.00009
1176	5.15208	3.1934322	171.5673	7.156584	33.00129
1177	5.15183	3.1935255	171.8095	7.156571	33.00248
1178	5.15174	3.1936188	172.0546	7.156539	33.00352
1179	5.15164	3.1936748	172.2847	7.156527	33.00414
1180	5.15139	3.1938302	172.5270	7.156480	33.00605
1181	5.15129	3.1939235	172.7662	7.156448	33.00709
1182	5.15109	3.1939795	173.0022	7.156448	33.00781
1183	5.15094	3.1941847	173.2415	7.156362	33.01019
1184	5.15074	3.1943464	173.4747	7.156306	33.01212
1185	5.15039	3.1944707	173.7107	7.156288	33.01377
1186	5.15014	3.1946821	173.9529	7.156211	33.01631
1187	5.14955	3.1949868	174.1830	7.156128	33.02027
1188	5.14885	3.1951112	174.4194	7.156154	33.02227
1189	5.14840	3.1952604	174.6554	7.156136	33.02430
1190	5.14781	3.1953848	174.8825	7.156150	33.02620
1191	5.14751	3.1954719	175.1217	7.156146	33.02737
1192	5.14726	3.1955341	175.3576	7.156149	33.02821
1193	5.14691	3.1955964	175.5907	7.156165	33.02915
1194	5.14681	3.1955964	175.8178	7.156183	33.02913
1195	5.14656	3.1956587	176.0573	7.156187	33.02997
1196	5.14651	3.1956898	176.2991	7.156182	33.03025
1197	5.14646	3.1956899	176.5202	7.156194	33.03019
1198	5.14631	3.1962681	176.7534	7.155906	33.03684
1199	5.14612	3.1969707	176.9896	7.155558	33.04497
1200	5.14582	3.1973065	177.2196	7.155420	33.04899
1201	5.14567	3.1976112	177.4557	7.155280	33.05251
1202	5.14547	3.1978537	177.6920	7.155180	33.05537
1203	5.14537	3.1980652	177.9311	7.155084	33.05777
1204	5.14527	3.1981896	178.1701	7.155035	33.05917
1205	5.14507	3.1982208	178.4035	7.155049	33.05961
1206	5.14502	3.1983079	178.6396	7.155014	33.06054
1207	5.14507	3.1984324	178.8723	7.154946	33.06179
1208	5.14522	3.1984324	179.1091	7.154933	33.06153
1209	5.14507	3.1984947	179.3481	7.154924	33.06227
1210	5.14517	3.1987062	179.5811	7.154803	33.06447
1211	5.14532	3.1990110	179.8204	7.154625	33.06770
1212	5.14552	3.1990732	180.0536	7.154572	33.06810
1213	5.14567	3.1991977	180.2894	7.154492	33.06925
1214	5.14582	3.1993159	180.5254	7.154415	33.07034
1215	5.14597	3.1994403	180.7557	7.154334	33.07150
1216	5.14587	3.1995337	180.9979	7.154302	33.07255
1217	5.14592	3.1995586	181.2250	7.154288	33.07267
1218	5.14597	3.1995898	181.4520	7.154270	33.07286
1219	5.14622	3.1996210	181.6881	7.154228	33.07286
1220	5.14607	3.1996521	181.9091	7.154235	33.07325
1221	5.14607	3.1997144	182.1420	7.154207	33.07385
1222	5.14597	3.1998513	182.3694	7.154151	33.07540
1223	5.14602	3.1999882	182.5932	7.154076	33.07680
1224	5.14612	3.2000504	182.8171	7.154036	33.07730
1225	5.14622	3.2001127	183.0384	7.153995	33.07781
1226	5.14612	3.2001128	183.2594	7.154012	33.07780
1227	5.14627	3.2004798	183.4834	7.153801	33.08174
1228	5.14641	3.2007535	183.7013	7.153640	33.08462
1229	5.14651	3.2006603	183.9134	7.153683	33.08334
1230	5.14651	3.2005111	184.1464	7.153769	33.08152
1231	5.14651	3.2007537	184.3584	7.153643	33.08419
1232	5.14681	3.2009342	184.5825	7.153513	33.08585
1233	5.14686	3.2010089	184.8064	7.153472	33.08654
1234	5.14701	3.2009965	185.0182	7.153465	33.08614
1235	5.14716	3.2010277	185.2394	7.153435	33.08624
1236	5.14731	3.2011210	185.4572	7.153371	33.08705
1237	5.14736	3.2017307	185.6754	7.153041	33.09388
1238	5.14741	3.2022782	185.9023	7.152745	33.09999
1239	5.14736	3.2024338	186.1264	7.152672	33.10170
1240	5.14746	3.2025209	186.3476	7.152618	33.10249
1241	5.14771	3.2025521	186.5746	7.152575	33.10249
1242	5.14776	3.2025833	186.7986	7.152558	33.10268
1243	5.14781	3.2026829	187.0195	7.152503	33.10366
1244	5.14771	3.2028572	187.2467	7.152427	33.10564
1245	5.14756	3.2029505	187.4676	7.152401	33.10675
1246	5.14746	3.2030439	187.6944	7.152368	33.10780
1247	5.14746	3.2030751	187.9155	7.152357	33.10805
1248	5.14731	3.2031063	188.1337	7.152364	33.10844
1249	5.14731	3.2031375	188.3546	7.152352	33.10869
1250	5.14721	3.2031686	188.5758	7.152353	33.10903
1251	5.14726	3.2031687	188.8055	7.152352	33.10887
1252	5.14716	3.2031937	189.0239	7.152357	33.10914
1253	5.14726	3.2032248	189.2506	7.152333	33.10929
1254	5.14731	3.2032249	189.4687	7.152332	33.10913
1255	5.14721	3.2032312	189.7016	7.152346	33.10918
1256	5.14721	3.2032873	189.9259	7.152321	33.10971
1257	5.14731	3.2032562	190.1556	7.152331	33.10914
1258	5.14721	3.2032874	190.3768	7.152332	33.10948
1259	5.14736	3.2032875	190.6129	7.152319	33.10922
1260	5.14736	3.2033498	190.8341	7.152291	33.10982
1261	5.14736	3.2034121	191.0698	7.152263	33.11041
1262	5.14731	3.2034432	191.2879	7.152257	33.11071
1263	5.14726	3.2034433	191.5213	7.152269	33.11064
1264	5.14726	3.2035056	191.7482	7.152241	33.11124
1265	5.14721	3.2035617	191.9751	7.152222	33.11182
1266	5.14716	3.2035866	192.1931	7.152220	33.11204
1267	5.14721	3.2036240	192.4262	7.152199	33.11231
1268	5.14726	3.2036552	192.6471	7.152181	33.11250
1269	5.14726	3.2036864	192.8742	7.152170	33.11274
1270	5.14726	3.2037176	193.0893	7.152158	33.11299
1271	5.14731	3.2037487	193.3133	7.152141	33.11319
1272	5.14706	3.2037488	193.5492	7.152178	33.11332
1273	5.14716	3.2037800	193.7703	7.152153	33.11346
1274	5.14726	3.2037801	193.9941	7.152146	33.11325
1275	5.14726	3.2037801	194.2243	7.152152	33.11314
1276	5.14726	3.2038113	194.4421	7.152140	33.11338
1277	5.14731	3.2038487	194.6726	7.152119	33.11365
1278	5.14731	3.2038674	194.8874	7.152114	33.11375
1279	5.14726	3.2038986	195.1083	7.152109	33.11405
1280	5.14726	3.2038987	195.3323	7.152114	33.11393
1281	5.14736	3.2039299	195.5597	7.152090	33.11408
1282	5.14736	3.2039610	195.7804	7.152079	33.11432
1283	5.14736	3.2039922	196.0045	7.152067	33.11457
1284	5.14741	3.2044216	196.2315	7.151835	33.11932
1285	5.14746	3.2046333	196.4462	7.151719	33.12159
1286	5.14771	3.2047267	196.6733	7.151643	33.12230
1287	5.14766	3.2047579	196.8974	7.151638	33.12259
1288	5.14776	3.2047891	197.1155	7.151614	33.12274
1289	5.14781	3.2048513	197.3334	7.151579	33.12329
1290	5.14781	3.2048203	197.5636	7.151601	33.12282
1291	5.14786	3.2048826	197.7875	7.151567	33.12337
1292	5.14781	3.2048516	198.0083	7.151595	33.12296
1293	5.14786	3.2049076	198.2323	7.151564	33.12344
1294	5.14776	3.2049077	198.4471	7.151582	33.12343
1295	5.14771	3.2049700	198.6714	7.151560	33.12408
1296	5.14776	3.2050012	198.8923	7.151542	33.12427
1297	5.14766	3.2050012	199.1133	7.151559	33.12426
1298	5.14771	3.2049702	199.3313	7.151575	33.12375
1299	5.14771	3.2049703	199.5491	7.151580	33.12364
1300	5.14761	3.2050637	199.7702	7.151548	33.12469
1301	5.14756	3.2052069	199.9849	7.151482	33.12627
1302	5.14756	3.2052754	200.2121	7.151450	33.12694
1303	5.14751	3.2053066	200.4240	7.151445	33.12724
1304	5.14736	3.2053067	200.6420	7.151469	33.12728
1305	5.14746	3.2054001	200.8568	7.151411	33.12815
1306	5.14751	3.2054313	201.0777	7.151393	33.12834
1307	5.14751	3.2054002	201.2927	7.151415	33.12788
1308	5.14741	3.2054003	201.5108	7.151433	33.12787
1309	5.14756	3.2054315	201.7256	7.151402	33.12797
1310	5.14766	3.2054938	201.9465	7.151361	33.12847
1311	5.14761	3.2055561	202.1585	7.151339	33.12913
1312	5.14751	3.2055872	202.3733	7.151340	33.12947
1313	5.14766	3.2055935	202.5944	7.151323	33.12929
1314	5.14771	3.2055874	202.7941	7.151325	33.12907
1315	5.14756	3.2055874	202.9879	7.151348	33.12912
1316	5.14756	3.2056124	203.1696	7.151339	33.12931
1317	5.14751	3.2056747	203.3271	7.151315	33.12999
1318	5.14746	3.2056747	203.4634	7.151325	33.12998
1319	5.14756	3.2057370	203.5846	7.151282	33.13053
1320	5.14746	3.2057992	203.6846	7.151263	33.13129
1321	5.14756	3.2058304	203.7784	7.151236	33.13150
1322	5.14766	3.2058926	203.8513	7.151192	33.13208
1323	5.14776	3.2060109	203.9148	7.151117	33.13330
1324	5.14806	3.2061043	203.9634	7.151030	33.13405
1325	5.14815	3.2061105	204.0151	7.151015	33.13400
1326	5.14825	3.2061354	204.0516	7.150990	33.13417
1327	5.14855	3.2061977	204.0881	7.150920	33.13457
1328	5.14940	3.2062599	204.1126	7.150781	33.13443
1329	5.14999	3.2062910	204.1487	7.150689	33.13418
1330	5.15044	3.2063159	204.1701	7.150620	33.13401
1331	5.15079	3.2063159	204.1826	7.150577	33.13366
1332	5.15144	3.2063782	204.2069	7.150462	33.13372
1333	5.15208	3.2064093	204.2313	7.150365	33.13342
1334	5.15263	3.2065027	204.2555	7.150246	33.13394
1335	5.15298	3.2065027	204.2799	7.150203	33.13358
1336	5.15328	3.2065960	204.3012	7.150115	33.13434
1337	5.15348	3.2065587	204.3226	7.150111	33.13371
1338	5.15377	3.2065338	204.3350	7.150087	33.13312
1339	5.15432	3.2065338	204.3442	7.150018	33.13257
1340	5.15472	3.2061666	204.3595	7.150166	33.12797
1341	5.15546	3.2061666	204.3659	7.150073	33.12722
1342	5.15601	3.2061977	204.3721	7.149987	33.12704
1343	5.15661	3.2062910	204.3963	7.149862	33.12750
1344	5.15731	3.2063471	204.4055	7.149745	33.12745
1345	5.15765	3.2063159	204.4150	7.149718	33.12674
1346	5.15805	3.2062599	204.4301	7.149698	33.12570
1347	5.15855	3.2062599	204.4303	7.149635	33.12521
1348	5.15920	3.2062288	204.4396	7.149571	33.12421
1349	5.16009	3.2062288	204.4367	7.149458	33.12332
1350	5.16079	3.2065275	204.4158	7.149209	33.12606
1351	5.16178	3.2070815	204.3494	7.148784	33.13145
1352	5.16332	3.2069631	204.2376	7.148651	33.12863
1353	5.16288	3.2067141	204.0805	7.148838	33.12630
1354	5.16183	3.2065958	203.9382	7.149029	33.12605
1355	5.16099	3.2065024	203.7813	7.149182	33.12590
1356	5.16024	3.2065024	203.6364	7.149273	33.12671
1357	5.15994	3.2065646	203.4945	7.149274	33.12779
1358	5.15999	3.2066517	203.3375	7.149217	33.12882
1359	5.16044	3.2066827	203.1954	7.149140	33.12880
1360	5.16138	3.2068072	203.0351	7.148951	33.12937
1361	5.16243	3.2068071	202.8693	7.148815	33.12842
1362	5.16303	3.2067573	202.6821	7.148762	33.12735
1363	5.16337	3.2067759	202.4825	7.148704	33.12732
1364	5.16352	3.2068380	202.2739	7.148646	33.12799
1365	5.16387	3.2069002	202.0501	7.148564	33.12847
1366	5.16427	3.2066263	201.8204	7.148656	33.12506
1367	5.16387	3.2065640	201.5969	7.148734	33.12485
1368	5.16218	3.2066261	201.3674	7.148908	33.12735
1369	5.16029	3.2063771	201.1617	7.149275	33.12648
1370	5.15845	3.2062277	200.9771	7.149583	33.12668
1371	5.15711	3.2061966	200.7808	7.149765	33.12775
1372	5.15586	3.2061654	200.5964	7.149934	33.12872
1373	5.15487	3.2061342	200.3970	7.150071	33.12945
1374	5.15402	3.2061031	200.1944	7.150189	33.13003
1375	5.15343	3.2060781	199.9980	7.150273	33.13044
1376	5.15313	3.2060407	199.7901	7.150326	33.13041
1377	5.15278	3.2060406	199.5934	7.150365	33.13085
1378	5.15258	3.2059472	199.3937	7.150436	33.13008
1379	5.15248	3.2059472	199.1914	7.150444	33.13028
1380	5.15238	3.2059222	199.0069	7.150465	33.13018
1381	5.15243	3.2058910	198.8105	7.150471	33.12988
1382	5.15248	3.2058910	198.6170	7.150460	33.12993
1383	5.15268	3.2058909	198.4205	7.150431	33.12983
1384	5.15253	3.2058597	198.2240	7.150462	33.12972
1385	5.15248	3.2057974	198.0159	7.150497	33.12916
1386	5.15243	3.2057663	197.8102	7.150515	33.12895
1387	5.15238	3.2057226	197.5986	7.150539	33.12861
1388	5.15223	3.2056728	197.3931	7.150580	33.12829
1389	5.15213	3.2056416	197.1938	7.150605	33.12813
1390	5.15188	3.2055855	196.9911	7.150662	33.12784
1391	5.15188	3.2056104	196.7916	7.150643	33.12822
1392	5.15198	3.2055854	196.5893	7.150640	33.12794
1393	5.15213	3.2055853	196.3897	7.150616	33.12789
1394	5.15208	3.2055853	196.1811	7.150617	33.12805
1395	5.15208	3.2055541	195.9849	7.150630	33.12779
1396	5.15218	3.2055229	195.7973	7.150629	33.12743
1397	5.15223	3.2055229	195.5889	7.150618	33.12748
1398	5.15233	3.2054917	195.3983	7.150618	33.12713
1399	5.15233	3.2054605	195.1837	7.150630	33.12688
1400	5.15248	3.2054604	194.9815	7.150606	33.12683
1401	5.15218	3.2054293	194.7758	7.150656	33.12687
1402	5.15213	3.2053670	194.5702	7.150690	33.12631
1403	5.15203	3.2053358	194.3619	7.150715	33.12616
1404	5.15193	3.2053046	194.1499	7.150739	33.12601
1405	5.15183	3.2052423	193.9505	7.150781	33.12549
1406	5.15159	3.2051862	193.7420	7.150837	33.12520
1407	5.15144	3.2051239	193.5458	7.150885	33.12474
1408	5.15119	3.2050928	193.3460	7.150928	33.12473
1409	5.15104	3.2050616	193.1465	7.150959	33.12462
1410	5.15094	3.2049682	192.9439	7.151017	33.12375
1411	5.15089	3.2049432	192.7324	7.151032	33.12362
1412	5.15079	3.2049370	192.5423	7.151043	33.12374
1413	5.15074	3.2049058	192.3456	7.151062	33.12353
1414	5.15079	3.2049368	192.1435	7.151034	33.12394
1415	5.15094	3.2049679	191.9436	7.150994	33.12425
1416	5.15129	3.2049367	191.7320	7.150961	33.12365
1417	5.15144	3.2049678	191.5416	7.150921	33.12396
1418	5.15149	3.2052166	191.3149	7.150776	33.12687
1419	5.15164	3.2053037	191.0825	7.150704	33.12784
1420	5.15154	3.2051542	190.8679	7.150792	33.12634
1421	5.15154	3.2050297	190.6652	7.150855	33.12501
1422	5.15149	3.2049674	190.4654	7.150890	33.12445
1423	5.15134	3.2049425	190.2722	7.150917	33.12441
1424	5.15134	3.2048802	190.0727	7.150946	33.12380
1425	5.15119	3.2048179	189.8732	7.150994	33.12333
1426	5.15114	3.2047245	189.6766	7.151046	33.12241
1427	5.15114	3.2046933	189.4802	7.151058	33.12215
1428	5.15109	3.2046933	189.2960	7.151060	33.12229
1429	5.15114	3.2047243	189.0996	7.151032	33.12270
1430	5.15139	3.2048487	188.9058	7.150929	33.12398
1431	5.15164	3.2050291	188.7035	7.150796	33.12590
1432	5.15174	3.2051535	188.4980	7.150711	33.12733
1433	5.15193	3.2051846	188.2983	7.150665	33.12759
1434	5.15223	3.2051845	188.0987	7.150622	33.12739
1435	5.15278	3.2051346	187.9026	7.150576	33.12638
1436	5.15313	3.2051221	187.7029	7.150534	33.12599
1437	5.15318	3.2051532	187.5096	7.150506	33.12640
1438	5.15323	3.2051531	187.3160	7.150495	33.12644
1439	5.15323	3.2051219	187.1106	7.150507	33.12619
1440	5.15333	3.2051530	186.9049	7.150473	33.12655
1441	5.15353	3.2051840	186.7086	7.150427	33.12681
1442	5.15358	3.2051218	186.5094	7.150449	33.12615
1443	5.15362	3.2051528	186.3186	7.150422	33.12655
1444	5.15362	3.2051527	186.1191	7.150417	33.12665
1445	5.15377	3.2050593	185.9316	7.150444	33.12553
1446	5.15377	3.2049659	185.7322	7.150490	33.12456
1447	5.15358	3.2049410	185.5296	7.150523	33.12457
1448	5.15358	3.2049036	185.3240	7.150539	33.12425
1449	5.15343	3.2047853	185.1274	7.150617	33.12314
1450	5.15318	3.2047541	184.9342	7.150660	33.12313
1451	5.15293	3.2046296	184.7255	7.150754	33.12205
1452	5.15253	3.2045424	184.5353	7.150846	33.12154
1453	5.15213	3.2044490	184.3356	7.150942	33.12097
1454	5.15188	3.2043868	184.1394	7.151002	33.12060
1455	5.15159	3.2042934	183.9337	7.151085	33.11993
1456	5.15129	3.2041128	183.7371	7.151215	33.11826
1457	5.15089	3.2039572	183.5438	7.151345	33.11697
1458	5.15049	3.2037830	183.3471	7.151484	33.11546
1459	5.15019	3.2035900	183.1508	7.151621	33.11365
1460	5.14990	3.2033784	182.9630	7.151768	33.11161
1461	5.14965	3.2031357	182.7666	7.151926	33.10918
1462	5.14940	3.2029179	182.5792	7.152070	33.10702
1463	5.14915	3.2026752	182.3859	7.152228	33.10459
1464	5.14890	3.2025507	182.1864	7.152321	33.10351
1465	5.14885	3.2024636	181.9779	7.152370	33.10267
1466	5.14880	3.2022147	181.7662	7.152505	33.09997
1467	5.14845	3.2020031	181.5453	7.152658	33.09800
1468	5.14840	3.2018475	181.3399	7.152743	33.09637
1469	5.14820	3.2017168	181.1315	7.152834	33.09518
1470	5.14791	3.2014555	180.9348	7.153007	33.09258
1471	5.14776	3.2013310	180.7142	7.153088	33.09141
1472	5.14771	3.2013932	180.4783	7.153055	33.09229
1473	5.14776	3.2009950	180.2638	7.153259	33.08779
1474	5.14756	3.2008706	180.0701	7.153346	33.08666
1475	5.14746	3.2008145	179.8739	7.153384	33.08622
1476	5.14746	3.2008456	179.6745	7.153363	33.08667
1477	5.14721	3.2008455	179.4596	7.153389	33.08703
1478	5.14721	3.2007210	179.2417	7.153451	33.08571
1479	5.14716	3.2005966	179.0270	7.153519	33.08444
1480	5.14696	3.2006525	178.7643	7.153508	33.08541
1481	5.14726	3.2004782	178.4893	7.153558	33.08326
1482	5.14716	3.2001423	178.2469	7.153746	33.07963
1483	5.14706	3.1999868	178.0447	7.153837	33.07805
1484	5.14686	3.1998685	177.8482	7.153921	33.07699
1485	5.14651	3.1998374	177.6393	7.153977	33.07709
1486	5.14636	3.1996818	177.4308	7.154075	33.07556
1487	5.14617	3.1995574	177.2100	7.154162	33.07444
1488	5.14617	3.1994703	176.9925	7.154204	33.07355
1489	5.14627	3.1993458	176.7777	7.154253	33.07214
1490	5.14617	3.1991716	176.5694	7.154355	33.07034
1491	5.14602	3.1989477	176.3514	7.154489	33.06804
1492	5.14592	3.1986118	176.1489	7.154678	33.06439
1493	5.14587	3.1983693	175.9431	7.154810	33.06176
1494	5.14572	3.1980334	175.7318	7.155005	33.05817
1495	5.14572	3.1977287	175.5141	7.155164	33.05479
1496	5.14577	3.1975173	175.3115	7.155267	33.05242
1497	5.14577	3.1973307	175.1060	7.155363	33.05039
1498	5.14577	3.1972125	174.9003	7.155422	33.04914
1499	5.14577	3.1970259	174.6888	7.155517	33.04711
1500	5.14572	3.1969512	174.4802	7.155559	33.04641
1501	5.14582	3.1968766	174.2775	7.155582	33.04555
1502	5.14592	3.1967211	174.0596	7.155648	33.04379
1503	5.14587	3.1965718	173.8391	7.155729	33.04224
1504	5.14582	3.1964163	173.6245	7.155815	33.04061
1505	5.14602	3.1962981	173.4098	7.155848	33.03917
1506	5.14617	3.1962048	173.1920	7.155874	33.03806
1507	5.14636	3.1960804	172.9806	7.155911	33.03655
1508	5.14671	3.1959933	172.7747	7.155909	33.03531
1509	5.14701	3.1958254	172.5633	7.155957	33.03320
1510	5.14726	3.1957197	172.3578	7.155978	33.03185
1511	5.14781	3.1955331	172.1521	7.156005	33.02927
1512	5.14801	3.1953839	171.9402	7.156055	33.02748
1513	5.14840	3.1953217	171.7196	7.156033	33.02648
1514	5.14890	3.1951973	171.5050	7.156032	33.02467
1515	5.14950	3.1950480	171.2995	7.156033	33.02248
1516	5.14970	3.1949237	171.0847	7.156070	33.02097
1517	5.14999	3.1948614	170.8701	7.156060	33.02007
1518	5.15019	3.1947433	170.6523	7.156094	33.01863
1519	5.15034	3.1946935	170.4376	7.156097	33.01802
1520	5.15064	3.1945567	170.2110	7.156127	33.01627
1521	5.15079	3.1945877	169.9813	7.156086	33.01660
1522	5.15104	3.1944384	169.7545	7.156130	33.01475
1523	5.15119	3.1942830	169.5520	7.156190	33.01293
1524	5.15149	3.1941648	169.3401	7.156211	33.01139
1525	5.15159	3.1941337	169.1345	7.156211	33.01104
1526	5.15169	3.1940715	168.9351	7.156227	33.01033
1527	5.15174	3.1939782	168.7234	7.156266	33.00932
1528	5.15198	3.1938911	168.5116	7.156276	33.00818
1529	5.15213	3.1937979	168.3091	7.156303	33.00707
1530	5.15223	3.1936424	168.0823	7.156369	33.00530
1531	5.15248	3.1934311	167.8678	7.156446	33.00275
1532	5.15263	3.1931576	167.6591	7.156570	32.99957
1533	5.15278	3.1929151	167.4414	7.156677	32.99676
1534	5.15293	3.1927038	167.2325	7.156767	32.99430
1535	5.15303	3.1923682	167.0180	7.156930	32.99046
1536	5.15313	3.1919705	166.8033	7.157127	32.98592
1537	5.15348	3.1915168	166.5919	7.157323	32.98049
1538	5.15362	3.1910260	166.3766	7.157563	32.97483
1539	5.15407	3.1906345	166.1681	7.157713	32.97001
1540	5.15432	3.1902679	165.9505	7.157874	32.96568
1541	5.15457	3.1899945	165.7392	7.157985	32.96241
1542	5.15462	3.1895659	165.5183	7.158205	32.95756
1543	5.15467	3.1892366	165.3035	7.158371	32.95385
1544	5.15482	3.1889322	165.0948	7.158511	32.95033
1545	5.15482	3.1886899	164.8862	7.158637	32.94766
1546	5.15487	3.1884725	164.6743	7.158743	32.94523
1547	5.15497	3.1882923	164.4539	7.158822	32.94318
1548	5.15482	3.1881059	164.2362	7.158936	32.94130
1549	5.15487	3.1879257	164.0152	7.159022	32.93930
1550	5.15512	3.1878636	163.8066	7.159019	32.93845
1551	5.15517	3.1877455	163.5979	7.159072	32.93715
1552	5.15527	3.1876523	163.3862	7.159104	32.93609
1553	5.15532	3.1875653	163.1656	7.159140	32.93516
1554	5.15551	3.1874100	162.9570	7.159193	32.93329
1555	5.15566	3.1873478	162.7452	7.159203	32.93254
1556	5.15576	3.1872608	162.5337	7.159232	32.93155
1557	5.15576	3.1871986	162.3160	7.159261	32.93095
1558	5.15566	3.1870123	162.1106	7.159369	32.92902
1559	5.15561	3.1869253	161.8864	7.159417	32.92818
1560	5.15576	3.1867700	161.6780	7.159477	32.92636
1561	5.15586	3.1866023	161.4694	7.159549	32.92445
1562	5.15606	3.1864656	161.2609	7.159593	32.92280
1563	5.15621	3.1862855	161.0460	7.159666	32.92069
1564	5.15646	3.1861612	160.8315	7.159697	32.91914
1565	5.15676	3.1858631	160.6134	7.159815	32.91554
1566	5.15726	3.1854346	160.3898	7.159977	32.91026
1567	5.15800	3.1850993	160.1719	7.160059	32.90580
1568	5.15875	3.1847454	159.9512	7.160150	32.90112
1569	5.15939	3.1844349	159.7274	7.160230	32.89704
1570	5.15989	3.1843728	159.4948	7.160195	32.89596
1571	5.16054	3.1836775	159.2770	7.160483	32.88748
1572	5.16153	3.1832802	159.0744	7.160567	32.88205
1573	5.16203	3.1831560	158.8780	7.160566	32.88024
1574	5.16268	3.1838262	158.6693	7.160118	32.88738
1575	5.16293	3.1835841	158.4545	7.160212	32.88447
1576	5.16298	3.1835902	158.2397	7.160197	32.88460
1577	5.16303	3.1849807	158.0219	7.159436	32.90058
1578	5.16327	3.1863775	157.8045	7.158647	32.91643
1579	5.16332	3.1872840	157.5866	7.158146	32.92686
1580	5.16347	3.1873150	157.3687	7.158106	32.92718
1581	5.16342	3.1869237	157.1480	7.158318	32.92286
1582	5.16352	3.1865263	156.9332	7.158514	32.91832
1583	5.16342	3.1867932	156.7277	7.158378	32.92158
1584	5.16352	3.1869235	156.5100	7.158290	32.92308
1585	5.16337	3.1874078	156.2863	7.158043	32.92889
1586	5.16342	3.1878301	156.0835	7.157804	32.93377
1587	5.16332	3.1883827	155.8718	7.157514	32.94030
1588	5.16327	3.1891714	155.6664	7.157090	32.94949
1589	5.16307	3.1901404	155.4577	7.156588	32.96088
1590	5.16263	3.1909665	155.2368	7.156194	32.97089
1591	5.16158	3.1917369	155.0220	7.155905	32.98085
1592	5.16024	3.1923333	154.8164	7.155748	32.98911
1593	5.15915	3.1927869	154.6048	7.155637	32.99549
1594	5.15810	3.1930291	154.3901	7.155633	32.99940
1595	5.15745	3.1929110	154.1723	7.155773	32.99879
1596	5.15721	3.1925443	153.9515	7.155997	32.99495
1597	5.15691	3.1920907	153.7367	7.156274	32.99016
1598	5.15666	3.1919974	153.5250	7.156351	32.98944
1599	5.15631	3.1918420	153.3102	7.156474	32.98812
1600	5.15576	3.1915127	153.1077	7.156716	32.98499
1601	5.15537	3.1912393	152.8901	7.156908	32.98236
1602	5.15532	3.1910839	152.6722	7.156993	32.98074
1603	5.15537	3.1910838	152.4574	7.156982	32.98080
1604	5.15537	3.1910527	152.2490	7.156993	32.98055
1605	5.15522	3.1908103	152.0311	7.157138	32.97803
1606	5.15507	3.1905990	151.8192	7.157266	32.97586
1607	5.15507	3.1905058	151.5988	7.157311	32.97491
1608	5.15502	3.1905492	151.3870	7.157288	32.97556
1609	5.15477	3.1904435	151.1722	7.157372	32.97470
1610	5.15462	3.1903254	150.9543	7.157449	32.97361
1611	5.15447	3.1899899	150.7364	7.157644	32.97002
1612	5.15432	3.1898967	150.5189	7.157708	32.96921
1613	5.15437	3.1897165	150.3072	7.157794	32.96721
1614	5.15422	3.1894431	150.1016	7.157955	32.96433
1615	5.15422	3.1892319	149.8837	7.158064	32.96202
1616	5.15422	3.1891386	149.6751	7.158109	32.96105
1617	5.15407	3.1892317	149.4604	7.158073	32.96238
1618	5.15407	3.1892006	149.2486	7.158084	32.96213
1619	5.15392	3.1889521	149.0371	7.158232	32.95953
1620	5.15402	3.1888651	148.8161	7.158261	32.95855
1621	5.15422	3.1888650	148.6076	7.158231	32.95846
1622	5.15397	3.1888650	148.3990	7.158258	32.95881
1623	5.15402	3.1890450	148.1932	7.158149	32.96093
1624	5.15397	3.1891071	147.9845	7.158117	32.96179
1625	5.15392	3.1891008	147.7638	7.158122	32.96188
1626	5.15417	3.1890448	147.5459	7.158115	32.96110
1627	5.15437	3.1892000	147.3251	7.158001	32.96280
1628	5.15437	3.1891378	147.1167	7.158030	32.96219
1629	5.15457	3.1892558	146.9016	7.157936	32.96345
1630	5.15442	3.1893800	146.6837	7.157883	32.96513
1631	5.15447	3.1893488	146.4784	7.157888	32.96483
1632	5.15447	3.1892556	146.2666	7.157934	32.96387
1633	5.15502	3.1892307	146.0488	7.157873	32.96315
1634	5.15661	3.1891685	145.8312	7.157700	32.96098
1635	5.15840	3.1890752	145.6223	7.157519	32.95825
1636	5.15989	3.1889820	145.4075	7.157376	32.95582
1637	5.16168	3.1885906	145.1899	7.157355	32.94969
1638	5.16337	3.1880999	144.9813	7.157401	32.94251
1639	5.16497	3.1876465	144.7694	7.157439	32.93586
1640	5.16591	3.1873111	144.5608	7.157496	32.93119
1641	5.16666	3.1872427	144.3522	7.157433	32.92978
1642	5.16715	3.1868887	144.1373	7.157556	32.92534
1643	5.16730	3.1864912	143.9287	7.157747	32.92075
1644	5.16800	3.1857336	143.7168	7.158062	32.91150
1645	5.16865	3.1850941	143.4962	7.158320	32.90366
1646	5.16939	3.1847650	143.2876	7.158398	32.89926
1647	5.17024	3.1844297	143.0697	7.158466	32.89470
1648	5.17098	3.1836847	142.8520	7.158768	32.88555
1649	5.17198	3.1829399	142.6435	7.159039	32.87616
1650	5.17273	3.1823936	142.4317	7.159234	32.86928
1651	5.17372	3.1820026	142.2228	7.159314	32.86393
1652	5.17457	3.1818225	141.9991	7.159298	32.86115
1653	5.17501	3.1817294	141.7931	7.159287	32.85975
1654	5.17541	3.1816052	141.5816	7.159299	32.85805
1655	5.17601	3.1810591	141.3698	7.159512	32.85132
1656	5.17696	3.1804819	141.1583	7.159699	32.84389
1657	5.17785	3.1801220	140.9465	7.159774	32.83900
1658	5.17885	3.1799978	140.7407	7.159710	32.83671
1659	5.18004	3.1797310	140.5232	7.159698	32.83259
1660	5.18143	3.1792408	140.3082	7.159780	32.82572
1661	5.18243	3.1788499	140.0935	7.159860	32.82039
1662	5.18298	3.1785334	139.8783	7.159956	32.81634
1663	5.18392	3.1780309	139.6608	7.160102	32.80977
1664	5.18477	3.1773671	139.4461	7.160347	32.80146
1665	5.18541	3.1769391	139.2376	7.160491	32.79603
1666	5.18601	3.1767592	139.0288	7.160507	32.79350
1667	5.18666	3.1773979	138.7988	7.160076	32.80028
1668	5.18721	3.1764551	138.5628	7.160509	32.78908
1669	5.18770	3.1753016	138.3514	7.161062	32.77551
1670	5.18845	3.1749171	138.1334	7.161169	32.77049
1671	5.18915	3.1748860	137.9217	7.161093	32.76956
1672	5.18970	3.1749418	137.7068	7.160988	32.76977
1673	5.19014	3.1746751	137.4831	7.161070	32.76639
1674	5.19074	3.1742162	137.2684	7.161236	32.76067
1675	5.19104	3.1737077	137.0504	7.161467	32.75467
1676	5.19149	3.1733729	136.8419	7.161586	32.75051
1677	5.19189	3.1731310	136.6362	7.161661	32.74746
1678	5.19218	3.1730380	136.4274	7.161668	32.74621
1679	5.19263	3.1731619	136.2066	7.161539	32.74730
1680	5.19268	3.1727961	135.9949	7.161725	32.74317
1681	5.19308	3.1722381	135.7770	7.161970	32.73652
1682	5.19318	3.1719219	135.5561	7.162122	32.73291
1683	5.19333	3.1717979	135.3325	7.162165	32.73146
1684	5.19338	3.1715561	135.1238	7.162284	32.72875
1685	5.19353	3.1712895	134.9151	7.162404	32.72567
1686	5.19363	3.1711035	134.7092	7.162486	32.72355
1687	5.19343	3.1711221	134.5065	7.162497	32.72405
1688	5.19333	3.1711964	134.3009	7.162464	32.72510
1689	5.19328	3.1710166	134.0863	7.162562	32.72321
1690	5.19333	3.1707438	133.8715	7.162698	32.72015
1691	5.19318	3.1706198	133.6567	7.162779	32.71898
1692	5.19318	3.1703532	133.4360	7.162917	32.71605
1693	5.19298	3.1701363	133.2149	7.163054	32.71387
1694	5.19293	3.1699565	132.9942	7.163152	32.71198
1695	5.19293	3.1696280	132.7793	7.163324	32.70833
1696	5.19288	3.1692314	132.5615	7.163538	32.70395
1697	5.19328	3.1688719	132.3528	7.163676	32.69956
1698	5.19378	3.1683576	132.1382	7.163885	32.69330
1699	5.19413	3.1680663	131.9354	7.163993	32.68974
1700	5.19467	3.1678742	131.7207	7.164022	32.68711
1701	5.19527	3.1671803	131.5029	7.164315	32.67871
1702	5.19592	3.1666970	131.2942	7.164488	32.67266
1703	5.19641	3.1663996	131.0792	7.164580	32.66888
1704	5.19726	3.1658545	130.8677	7.164761	32.66193
1705	5.19816	3.1652289	130.6558	7.164979	32.65401
1706	5.19880	3.1643494	130.4412	7.165366	32.64344
1707	5.19930	3.1630552	130.2293	7.165994	32.62828
1708	5.19975	3.1621511	130.0266	7.166419	32.61761
1709	5.20015	3.1613958	129.8179	7.166771	32.60870
1710	5.20050	3.1605910	129.6063	7.167155	32.59927
1711	5.20075	3.1599844	129.3887	7.167445	32.59221
1712	5.20100	3.1589321	129.1737	7.167975	32.58006
1713	5.20134	3.1582699	128.9588	7.168282	32.57226
1714	5.20174	3.1576944	128.7409	7.168536	32.56541
1715	5.20189	3.1571312	128.5232	7.168815	32.55894
1716	5.20204	3.1572487	128.2842	7.168727	32.56026
1717	5.20234	3.1560113	128.0632	7.169350	32.54594
1718	5.20239	3.1555658	127.8516	7.169579	32.54091
1719	5.20249	3.1554111	127.6458	7.169645	32.53915
1720	5.20244	3.1552935	127.4403	7.169710	32.53796
1721	5.20224	3.1550212	127.2165	7.169876	32.53516
1722	5.20219	3.1546933	127.0015	7.170054	32.53157
1723	5.20239	3.1543593	126.7837	7.170204	32.52767
1724	5.20229	3.1542417	126.5629	7.170274	32.52653
1725	5.20229	3.1541179	126.3419	7.170336	32.52523
1726	5.20224	3.1539447	126.1243	7.170430	32.52341
1727	5.20209	3.1539446	125.9155	7.170444	32.52366
1728	5.20209	3.1537590	125.7008	7.170539	32.52165
1729	5.20224	3.1535486	125.4951	7.170629	32.51920
1730	5.20239	3.1534867	125.2772	7.170638	32.51846
1731	5.20279	3.1534310	125.0712	7.170612	32.51754
1732	5.20343	3.1533382	124.8477	7.170575	32.51596
1733	5.20398	3.1531031	124.6238	7.170627	32.51285
1734	5.20453	3.1529484	124.4152	7.170635	32.51066
1735	5.20528	3.1527999	124.2002	7.170615	32.50835
1736	5.20612	3.1526205	123.9825	7.170599	32.50558
1737	5.20687	3.1525029	123.7615	7.170562	32.50363
1738	5.20782	3.1523483	123.5500	7.170520	32.50105
1739	5.20896	3.1522493	123.3318	7.170422	32.49891
1740	5.21051	3.1520822	123.1230	7.170311	32.49561
1741	5.21210	3.1519028	122.9023	7.170199	32.49212
1742	5.21369	3.1517481	122.6844	7.170075	32.48892
1743	5.21524	3.1514513	122.4730	7.170033	32.48414
1744	5.21663	3.1513275	122.2639	7.169917	32.48148
1745	5.21788	3.1513893	122.0432	7.169720	32.48108
1746	5.21917	3.1512408	121.8313	7.169630	32.47824
1747	5.22042	3.1510614	121.6164	7.169563	32.47509
1748	5.22161	3.1509501	121.4047	7.169466	32.47276
1749	5.22266	3.1508820	121.1870	7.169365	32.47108
1750	5.22355	3.1508201	120.9749	7.169279	32.46961
1751	5.22470	3.1507273	120.7604	7.169178	32.46754
1752	5.22614	3.1506715	120.5393	7.169019	32.46562
1753	5.22764	3.1506344	120.3186	7.168843	32.46385
1754	5.22903	3.1506096	120.1009	7.168674	32.46232
1755	5.23058	3.1504920	119.8890	7.168536	32.45959
1756	5.23212	3.1503992	119.6652	7.168384	32.45715
1757	5.23337	3.1503497	119.4442	7.168247	32.45548
1758	5.23471	3.1502507	119.2324	7.168124	32.45315
1759	5.23641	3.1501888	119.0205	7.167937	32.45091
1760	5.23800	3.1501269	118.8029	7.167762	32.44877
1761	5.23960	3.1501577	118.5940	7.167538	32.44768
1762	5.24149	3.1499969	118.3822	7.167378	32.44411
1763	5.24323	3.1498917	118.1705	7.167208	32.44133
1764	5.24498	3.1498298	117.9469	7.167014	32.43904
1765	5.24692	3.1498297	117.7167	7.166761	32.43727
1766	5.24887	3.1495329	117.5110	7.166668	32.43211
1767	5.25201	3.1494957	117.2961	7.166284	32.42875
1768	5.25520	3.1495327	117.0842	7.165853	32.42619
1769	5.25829	3.1495017	116.8635	7.165472	32.42295
1770	5.26128	3.1494089	116.6458	7.165136	32.41910
1771	5.26417	3.1492728	116.4279	7.164836	32.41486
1772	5.26726	3.1492603	116.2131	7.164444	32.41183
1773	5.27080	3.1491984	116.0041	7.164022	32.40780
1774	5.27389	3.1491674	115.7955	7.163641	32.40456
1775	5.27659	3.1491117	115.5776	7.163323	32.40143
1776	5.27903	3.1491116	115.3662	7.163008	32.39917
1777	5.28117	3.1490806	115.1541	7.162747	32.39685
1778	5.28292	3.1489569	114.9486	7.162586	32.39385
1779	5.28462	3.1489321	114.7246	7.162379	32.39204
1780	5.28601	3.1488888	114.5218	7.162219	32.39030
1781	5.28736	3.1488392	114.3068	7.162070	32.38854
1782	5.28841	3.1487773	114.0981	7.161965	32.38692
1783	5.28946	3.1486907	113.8773	7.161873	32.38503
1784	5.29030	3.1486598	113.6686	7.161777	32.38396
1785	5.29160	3.1486720	113.4628	7.161600	32.38295
1786	5.29280	3.1485669	113.2570	7.161500	32.38070
1787	5.29360	3.1484494	113.0453	7.161456	32.37870
1788	5.29420	3.1483566	112.8395	7.161425	32.37716
1789	5.29430	3.1482267	112.6248	7.161477	32.37569
1790	5.29434	3.1479980	112.4069	7.161588	32.37315
1791	5.29405	3.1477013	112.2011	7.161781	32.37016
1792	5.29375	3.1474602	111.9860	7.161943	32.36781
1793	5.29330	3.1472129	111.7745	7.162127	32.36554
1794	5.29290	3.1469842	111.5658	7.162296	32.36342
1795	5.29235	3.1467432	111.3568	7.162490	32.36131
1796	5.29160	3.1464403	111.1633	7.162743	32.35868
1797	5.29065	3.1461746	110.9543	7.163001	32.35667
1798	5.28975	3.1459829	110.7395	7.163213	32.35547
1799	5.28886	3.1457234	110.5308	7.163462	32.35348
1800	5.28821	3.1454576	110.3222	7.163682	32.35119
1801	5.28741	3.1452166	110.1163	7.163908	32.34931
1802	5.28676	3.1450312	109.9075	7.164085	32.34793
1803	5.28616	3.1448273	109.6928	7.164265	32.34630
1804	5.28546	3.1444689	109.4841	7.164542	32.34299
1805	5.28502	3.1441970	109.2752	7.164740	32.34043
1806	5.28442	3.1441167	109.0667	7.164854	32.34020
1807	5.28407	3.1439004	108.8636	7.165010	32.33817
1808	5.28392	3.1436285	108.6520	7.165170	32.33533
1809	5.28402	3.1434184	108.4400	7.165265	32.33294
1810	5.28507	3.1432392	108.2341	7.165223	32.32999
1811	5.28631	3.1430106	108.0224	7.165182	32.32629
1812	5.28776	3.1428499	107.8046	7.165079	32.32318
1813	5.28881	3.1428807	107.5807	7.164923	32.32263
1814	5.29050	3.1425533	107.3781	7.164878	32.31736
1815	5.29275	3.1424112	107.1694	7.164664	32.31368
1816	5.29524	3.1423740	106.9665	7.164361	32.31095
1817	5.29819	3.1424604	106.7668	7.163936	32.30919
1818	5.30098	3.1424603	106.5551	7.163575	32.30660
1819	5.30378	3.1423490	106.3523	7.163274	32.30274
1820	5.30677	3.1422810	106.1465	7.162925	32.29918
1821	5.30991	3.1421636	105.9376	7.162583	32.29492
1822	5.31251	3.1421944	105.7319	7.162231	32.29287
1823	5.31521	3.1424104	105.5143	7.161767	32.29284
1824	5.31745	3.1423115	105.3054	7.161530	32.28965
1825	5.31945	3.1422250	105.0965	7.161317	32.28685
1826	5.32140	3.1421631	104.8910	7.161098	32.28437
1827	5.32379	3.1422557	104.6728	7.160738	32.28322
1828	5.32599	3.1422865	104.4703	7.160437	32.28156
1829	5.32809	3.1422802	104.2735	7.160169	32.27956
1830	5.33023	3.1422801	104.0707	7.159892	32.27759
1831	5.33203	3.1421936	103.8560	7.159704	32.27499
1832	5.33338	3.1421256	103.6500	7.159564	32.27302
1833	5.33438	3.1421626	103.4381	7.159413	32.27258
1834	5.33528	3.1421007	103.2388	7.159327	32.27111
1835	5.33618	3.1420142	103.0299	7.159254	32.26936
1836	5.33673	3.1419091	102.8241	7.159235	32.26774
1837	5.33703	3.1418350	102.6212	7.159232	32.26671
1838	5.33708	3.1419214	102.4094	7.159175	32.26775
1839	5.33668	3.1419831	102.2038	7.159188	32.26894
1840	5.33563	3.1418718	101.9980	7.159376	32.26878
1841	5.33503	3.1418347	101.8012	7.159467	32.26904
1842	5.33478	3.1421002	101.6016	7.159352	32.27239
1843	5.33463	3.1429711	101.4018	7.158901	32.28254
1844	5.33418	3.1435455	101.2021	7.158646	32.28960
1845	5.33328	3.1440149	100.9994	7.158505	32.29591
1846	5.33083	3.1453307	100.8027	7.158107	32.31333
1847	5.32724	3.1472463	100.6003	7.157535	32.33869
1848	5.32274	3.1482351	100.3974	7.157572	32.35437
1849	5.31610	3.1485998	100.1915	7.158215	32.36504
1850	5.30587	3.1484762	99.9917	7.159577	32.37362
1851	5.29459	3.1488657	99.7831	7.160796	32.38906
1852	5.28611	3.1491377	99.5772	7.161724	32.40046
1853	5.28053	3.1492984	99.3776	7.162343	32.40780
1854	5.27579	3.1493725	99.1715	7.162901	32.41333
1855	5.27135	3.1497620	98.9720	7.163251	32.42217
1856	5.26741	3.1496136	98.7723	7.163827	32.42439
1857	5.26377	3.1490449	98.5664	7.164591	32.42153
1858	5.26108	3.1489212	98.3607	7.164994	32.42283
1859	5.25988	3.1488964	98.1609	7.165155	32.42381
1860	5.25973	3.1488655	97.9583	7.165186	32.42370
1861	5.26028	3.1483524	97.7495	7.165387	32.41743
1862	5.26138	3.1476539	97.5348	7.165618	32.40851
1863	5.26302	3.1477280	97.3318	7.165364	32.40786
1864	5.26517	3.1473695	97.1201	7.165279	32.40180
1865	5.26691	3.1467390	96.9233	7.165390	32.39303
1866	5.26766	3.1467081	96.7234	7.165307	32.39205
1867	5.26806	3.1468934	96.5206	7.165152	32.39388
1868	5.26921	3.1466770	96.3212	7.165118	32.39040
1869	5.27050	3.1466152	96.1184	7.164981	32.38854
1870	5.27105	3.1467078	95.9157	7.164857	32.38917
1871	5.27030	3.1470229	95.7221	7.164779	32.39358
1872	5.26906	3.1471588	95.5224	7.164859	32.39643
1873	5.26786	3.1472144	95.3255	7.164977	32.39832
1874	5.26691	3.1473070	95.1290	7.165043	32.40039
1875	5.26567	3.1476840	94.9291	7.164995	32.40600
1876	5.26452	3.1478446	94.7204	7.165050	32.40904
1877	5.26357	3.1476653	94.5174	7.165262	32.40802
1878	5.26208	3.1474861	94.3149	7.165543	32.40752
1879	5.26063	3.1474860	94.1183	7.165723	32.40902
1880	5.25948	3.1475910	93.9245	7.165808	32.41142
1881	5.25874	3.1475477	93.7157	7.165921	32.41176
1882	5.25809	3.1475477	93.5188	7.165999	32.41248
1883	5.25744	3.1474549	93.3101	7.166126	32.41216
1884	5.25699	3.1474301	93.1195	7.166192	32.41240
1885	5.25664	3.1474239	92.9229	7.166236	32.41277
1886	5.25659	3.1473373	92.7230	7.166284	32.41193
1887	5.25629	3.1473929	92.5141	7.166287	32.41296
1888	5.25634	3.1476338	92.3054	7.166146	32.41576
1889	5.25629	3.1475596	92.1026	7.166188	32.41506
1890	5.25624	3.1474236	91.9028	7.166263	32.41366
1891	5.25614	3.1473679	91.7032	7.166300	32.41322
1892	5.25614	3.1472133	91.4975	7.166379	32.41156
1893	5.25609	3.1472380	91.3036	7.166367	32.41199
1894	5.25619	3.1471576	91.1040	7.166393	32.41107
1895	5.25604	3.1470958	90.9162	7.166441	32.41061
1896	5.25614	3.1471266	90.7105	7.166407	32.41096
1897	5.25609	3.1472748	90.5080	7.166329	32.41280
1898	5.25624	3.1473675	90.3050	7.166255	32.41381
1899	5.25639	3.1473365	90.1083	7.166248	32.41341
1900	5.25649	3.1472129	89.9086	7.166297	32.41201
1901	5.25639	3.1473673	89.7059	7.166222	32.41397
1902	5.25659	3.1473981	89.5094	7.166176	32.41422
1903	5.25669	3.1471262	89.3155	7.166304	32.41112
1904	5.25684	3.1470643	89.1038	7.166314	32.41038
1905	5.25679	3.1470333	88.9066	7.166332	32.41017
1906	5.25664	3.1470518	88.7042	7.166336	32.41063
1907	5.25659	3.1470950	88.4982	7.166315	32.41127
1908	5.25649	3.1471568	88.3016	7.166290	32.41217
1909	5.25644	3.1471258	88.0961	7.166308	32.41197
1910	5.25639	3.1470021	87.8600	7.166375	32.41072
1911	5.25589	3.1476201	87.6327	7.166101	32.41836
1912	5.25550	3.1473357	87.4420	7.166300	32.41560
1913	5.25559	3.1473048	87.2364	7.166299	32.41526
1914	5.25584	3.1473356	87.0305	7.166246	32.41547
1915	5.25649	3.1473355	86.8307	7.166159	32.41494
1916	5.26302	3.1472118	86.6218	7.165390	32.40731
1917	5.27339	3.1471807	86.4312	7.164083	32.39701
1918	5.28307	3.1471249	86.2164	7.162877	32.38712
1919	5.29075	3.1471248	86.0226	7.161896	32.37978
1920	5.29814	3.1471741	85.8199	7.160926	32.37331
1921	5.30258	3.1471246	85.6202	7.160384	32.36855
1922	5.30487	3.1470627	85.4141	7.160120	32.36573
1923	5.31186	3.1470008	85.2207	7.159261	32.35837
1924	5.32714	3.1469511	85.0147	7.157342	32.34316
1925	5.34462	3.1468520	84.8092	7.155170	32.32526
1926	5.36450	3.1467652	84.6061	7.152686	32.30521
1927	5.38085	3.1466105	84.4035	7.150690	32.28781
1928	5.39405	3.1463817	84.2067	7.149132	32.27260
1929	5.41166	3.1462517	84.0098	7.146964	32.25429
1930	5.43072	3.1461340	83.8043	7.144604	32.23474
1931	5.44484	3.1460164	83.6167	7.142873	32.21995
1932	5.45921	3.1460409	83.4230	7.141034	32.20653
1933	5.47243	3.1459727	83.2232	7.139390	32.19318
1934	5.48456	3.1458057	83.0203	7.137938	32.17977
1935	5.49318	3.1459848	82.8116	7.136747	32.17364
1936	5.50060	3.1460155	82.5997	7.135786	32.16699
1937	5.50827	3.1460957	82.4031	7.134768	32.16065
1938	5.51584	3.1463118	82.2001	7.133691	32.15595
1939	5.52241	3.1463426	81.9973	7.132839	32.15011
1940	5.52863	3.1463425	81.7915	7.132047	32.14427
1941	5.53395	3.1465710	81.5858	7.131249	32.14187
1942	5.54143	3.1467933	81.3859	7.130181	32.13733
1943	5.55071	3.1467005	81.1830	7.129051	32.12751
1944	5.55895	3.1471514	80.9805	7.127768	32.12484
1945	5.56608	3.1477508	80.7747	7.126545	32.12491
1946	5.57371	3.1479299	80.5810	7.125482	32.11974
1947	5.58190	3.1481955	80.3751	7.124303	32.11502
1948	5.58918	3.1485847	80.1812	7.123173	32.11256
1949	5.59621	3.1488875	79.9818	7.122121	32.10937
1950	5.60254	3.1489739	79.7819	7.121272	32.10440
1951	5.60827	3.1490356	79.5852	7.120511	32.09973
1952	5.61300	3.1487635	79.3792	7.120054	32.09226
1953	5.61657	3.1487325	79.1766	7.119615	32.08860
1954	5.62079	3.1492763	78.9678	7.118791	32.09082
1955	5.62552	3.1493504	78.7651	7.118151	32.08725
1956	5.62979	3.1496346	78.5713	7.117458	32.08648
1957	5.63391	3.1499065	78.3592	7.116790	32.08572
1958	5.63789	3.1498137	78.1386	7.116333	32.08099
1959	5.64000	3.1503947	77.9143	7.115756	32.08564
1960	5.64136	3.1502648	77.7150	7.115648	32.08298
1961	5.64126	3.1498753	77.5178	7.115861	32.07878
1962	5.64096	3.1499061	77.3121	7.115879	32.07952
1963	5.64070	3.1495166	77.1094	7.116111	32.07546
1964	5.64030	3.1491951	76.9008	7.116326	32.07232
1965	5.63889	3.1487315	76.6976	7.116743	32.06854
1966	5.63648	3.1484657	76.4886	7.117182	32.06794
1967	5.63316	3.1480454	76.2919	7.117818	32.06646
1968	5.62979	3.1473903	76.0894	7.118583	32.06238
1969	5.62682	3.1470565	75.8835	7.119128	32.06154
1970	5.62431	3.1469391	75.6806	7.119503	32.06271
1971	5.62225	3.1466980	75.4839	7.119885	32.06205
1972	5.62004	3.1463087	75.2781	7.120365	32.05986
1973	5.61717	3.1459997	75.0783	7.120885	32.05920
1974	5.61415	3.1454127	74.8664	7.121570	32.05556
1975	5.61114	3.1447207	74.6637	7.122311	32.05072
1976	5.60868	3.1442450	74.4639	7.122868	32.04780
1977	5.60827	3.1440410	74.2701	7.123022	32.04597
1978	5.61008	3.1437630	74.0643	7.122935	32.04121
1979	5.61295	3.1436455	73.8644	7.122631	32.03726
1980	5.61642	3.1435528	73.6466	7.122236	32.03302
1981	5.62034	3.1435032	73.4439	7.121763	32.02883
1982	5.62612	3.1436143	73.2441	7.120969	32.02468
1983	5.63170	3.1437068	73.0380	7.120211	32.02052
1984	5.63703	3.1439168	72.8355	7.119423	32.01791
1985	5.64277	3.1441823	72.6325	7.118554	32.01555
1986	5.64966	3.1444478	72.4236	7.117540	32.01210
1987	5.65580	3.1446330	72.2208	7.116663	32.00845
1988	5.66133	3.1447503	72.0149	7.115899	32.00461
1989	5.66662	3.1448428	71.8152	7.115179	32.00074
1990	5.67195	3.1450157	71.6185	7.114411	31.99771
1991	5.67744	3.1452565	71.3977	7.113587	31.99532
1992	5.68524	3.1456209	71.1857	7.112407	31.99212
1993	5.69501	3.1461274	70.9830	7.110905	31.98865
1994	5.70574	3.1465660	70.7798	7.109319	31.98350
1995	5.71607	3.1472023	70.5773	7.107679	31.98096
1996	5.72605	3.1475915	70.3716	7.106214	31.97598
1997	5.73633	3.1479250	70.1596	7.104740	31.97009
1998	5.74702	3.1483390	69.9628	7.103174	31.96471
1999	5.75670	3.1489693	69.7568	7.101622	31.96272
2000	5.76598	3.1493276	69.5512	7.100263	31.95805
2001	5.77552	3.1500198	69.3481	7.098698	31.95690
2002	5.78415	3.1505019	69.1331	7.097357	31.95425
2003	5.79262	3.1510891	68.9274	7.095980	31.95291
2004	5.80272	3.1514599	68.7278	7.094514	31.94762
2005	5.81105	3.1519977	68.5220	7.093183	31.94587
2006	5.81843	3.1522387	68.3132	7.092127	31.94170
2007	5.82535	3.1523560	68.0831	7.091192	31.93659
2008	5.83176	3.1533021	67.8802	7.089890	31.94123
2009	5.83843	3.1533452	67.6803	7.089026	31.93550
2010	5.84566	3.1535863	67.4746	7.087990	31.93148
2011	5.85304	3.1539449	67.2686	7.086873	31.92862
2012	5.85956	3.1540684	67.0689	7.085987	31.92394
2013	5.86715	3.1544085	66.8572	7.084855	31.92069
2014	5.87605	3.1548784	66.6451	7.083491	31.91766
2015	5.88657	3.1552679	66.4453	7.081966	31.91218
2016	5.89810	3.1557750	66.2303	7.080254	31.90708
2017	5.90888	3.1560780	66.0245	7.078743	31.90040
2018	5.91810	3.1566903	65.8098	7.077268	31.89867
2019	5.92838	3.1570985	65.6068	7.075766	31.89364
2020	5.93927	3.1574881	65.4069	7.074198	31.88783
2021	5.95011	3.1578530	65.2011	7.072649	31.88180
2022	5.95918	3.1582736	64.9802	7.071293	31.87807
2023	5.96729	3.1586881	64.7744	7.070061	31.87516
2024	5.97570	3.1591707	64.5655	7.068756	31.87273
2025	5.98376	3.1592015	64.3597	7.067729	31.86559
2026	5.99142	3.1597150	64.1506	7.066503	31.86422
2027	5.99857	3.1600429	63.9450	7.065437	31.86125
2028	6.00506	3.1602470	63.7358	7.064517	31.85753
2029	6.01136	3.1606430	63.5329	7.063523	31.85613
2030	6.01739	3.1607358	63.3275	7.062717	31.85159
2031	6.02277	3.1611566	63.1245	7.061825	31.85132
2032	6.02790	3.1611874	62.9155	7.061165	31.84695
2033	6.03293	3.1614535	62.7035	7.060397	31.84530
2034	6.03988	3.1621219	62.4947	7.059181	31.84632
2035	6.04943	3.1626295	62.2889	7.057726	31.84311
2036	6.05994	3.1635333	62.0771	7.055947	31.84341
2037	6.06919	3.1640161	61.8683	7.054543	31.84021
2038	6.07834	3.1647591	61.6593	7.053018	31.84000
2039	6.08987	3.1653720	61.4596	7.051264	31.83609
2040	6.10233	3.1657930	61.2507	7.049494	31.82919
2041	6.11398	3.1664556	61.0447	7.047702	31.82574
2042	6.12547	3.1670315	60.8327	7.045973	31.82147
2043	6.13682	3.1676632	60.6238	7.044235	31.81797
2044	6.14608	3.1677497	60.4120	7.043036	31.81035
2045	6.15357	3.1683567	60.1973	7.041792	31.81019
2046	6.16029	3.1687160	60.0004	7.040769	31.80799
2047	6.16630	3.1688088	59.7886	7.039972	31.80349
2048	6.17164	3.1693230	59.5826	7.039041	31.80430
2049	6.17704	3.1695025	59.3735	7.038275	31.80134
2050	6.18168	3.1693413	59.1677	7.037777	31.79531
2051	6.18581	3.1694713	58.9650	7.037195	31.79299
2052	6.18963	3.1698058	58.7472	7.036545	31.79323
2053	6.19319	3.1698925	58.5381	7.036054	31.79096
2054	6.19707	3.1699234	58.3356	7.035554	31.78777
2055	6.19997	3.1691487	58.0961	7.035583	31.77657
2056	6.20084	3.1707102	57.8871	7.034675	31.79320
2057	6.20247	3.1706172	57.6844	7.034516	31.79073
2058	6.20425	3.1702577	57.4753	7.034474	31.78517
2059	6.20787	3.1705612	57.2604	7.033865	31.78526
2060	6.21159	3.1705301	57.0548	7.033416	31.78154
2061	6.21552	3.1708647	56.8459	7.032754	31.78168
2062	6.21950	3.1708274	56.6398	7.032276	31.77765
2063	6.22363	3.1707405	56.4279	7.031804	31.77292
2064	6.22791	3.1706785	56.2132	7.031300	31.76833
2065	6.23204	3.1708023	55.9982	7.030720	31.76595
2066	6.23689	3.1710439	55.7861	7.029993	31.76421
2067	6.24270	3.1711181	55.5863	7.029230	31.75969
2068	6.25036	3.1710994	55.3806	7.028288	31.75244
2069	6.25965	3.1713100	55.1716	7.027026	31.74620
2070	6.26904	3.1715515	54.9657	7.025737	31.74022
2071	6.27905	3.1716133	54.7448	7.024462	31.73167
2072	6.28982	3.1719789	54.5330	7.022939	31.72578
2073	6.30106	3.1721398	54.3147	7.021463	31.71719
2074	6.31307	3.1725797	54.0999	7.019751	31.71098
2075	6.32743	3.1728833	53.8941	7.017818	31.70106
2076	6.34211	3.1732116	53.6913	7.015835	31.69114
2077	6.35863	3.1736081	53.4823	7.013590	31.68025
2078	6.37761	3.1742403	53.2704	7.010923	31.66970
2079	6.39809	3.1748848	53.0673	7.008067	31.65789
2080	6.42099	3.1757526	52.8616	7.004803	31.64632
2081	6.44277	3.1764469	52.6497	7.001766	31.63388
2082	6.46215	3.1772343	52.4408	6.998980	31.62469
2083	6.48072	3.1779907	52.2349	6.996311	31.61593
2084	6.49822	3.1786294	52.0288	6.993834	31.60686
2085	6.51132	3.1789022	51.8171	6.992083	31.59785
2086	6.52472	3.1796712	51.6082	6.990047	31.59401
2087	6.54095	3.1804465	51.3931	6.987660	31.58764
2088	6.55997	3.1818673	51.1845	6.984612	31.58578
2089	6.58136	3.1832944	50.9723	6.981271	31.58181
2090	6.60678	3.1848397	50.7722	6.977382	31.57541
2091	6.63623	3.1866336	50.5638	6.972879	31.56802
2092	6.66431	3.1877572	50.3549	6.968882	31.55456
2093	6.68967	3.1888810	50.1459	6.965220	31.54361
2094	6.71624	3.1896633	49.9338	6.961584	31.52783
2095	6.73709	3.1901848	49.7219	6.958777	31.51447
2096	6.75382	3.1909176	49.5102	6.956370	31.50721
2097	6.76911	3.1911596	49.3044	6.954382	31.49591
2098	6.78245	3.1918242	49.0921	6.952425	31.49103
2099	6.79423	3.1924951	48.8831	6.950654	31.48764
2100	6.80380	3.1923147	48.6775	6.949574	31.47700
2101	6.81119	3.1922214	48.4712	6.948716	31.46929
2102	6.81725	3.1921032	48.2625	6.948033	31.46256
2103	6.82278	3.1918545	48.0445	6.947477	31.45487
2104	6.83013	3.1933767	47.8325	6.945829	31.46485
2105	6.83913	3.1932274	47.6299	6.944803	31.45507
2106	6.84669	3.1927053	47.4148	6.944136	31.44256
2107	6.85528	3.1930407	47.2029	6.942922	31.43845
2108	6.86352	3.1934383	46.9972	6.941721	31.43534
2109	6.87206	3.1933449	46.7849	6.940724	31.42661
2110	6.88071	3.1928911	46.5824	6.939892	31.41385
2111	6.88869	3.1924250	46.3764	6.939147	31.40158
2112	6.89605	3.1925553	46.1733	6.938184	31.39637
2113	6.90232	3.1922818	45.9613	6.937552	31.38777
2114	6.90937	3.1923748	45.7555	6.936646	31.38244
2115	6.91549	3.1931328	45.5468	6.935527	31.38520
2116	6.92166	3.1941953	45.3379	6.934253	31.39123
2117	6.93178	3.1948975	45.1290	6.932677	31.38974
2118	6.94781	3.1953883	44.9259	6.930488	31.38054
2119	6.96218	3.1949592	44.7171	6.928950	31.36287
2120	6.97065	3.1940268	44.5112	6.928376	31.34513
2121	6.97745	3.1928894	44.3019	6.928103	31.32667
2122	6.98124	3.1918827	44.1022	6.928131	31.31238
2123	6.98093	3.1913049	43.8903	6.928446	31.30649
2124	6.98160	3.1906090	43.6725	6.928700	31.29842
2125	6.98446	3.1906648	43.4545	6.928322	31.29653
2126	6.99210	3.1915469	43.2484	6.926961	31.29926
2127	6.99947	3.1920935	43.0395	6.925795	31.29859
2128	7.00529	3.1927085	42.8309	6.924785	31.30007
2129	7.01231	3.1930688	42.6188	6.923755	31.29770
2130	7.02182	3.1927020	42.4098	6.922777	31.28518
2131	7.03019	3.1926770	42.2010	6.921771	31.27740
2132	7.03628	3.1919436	41.9951	6.921387	31.26402
2133	7.04257	3.1908501	41.7860	6.921153	31.24656
2134	7.04616	3.1906947	41.5801	6.920790	31.24171
2135	7.04798	3.1887814	41.3741	6.921497	31.21942
2136	7.04720	3.1870177	41.1562	6.922446	31.20111
2137	7.04231	3.1854903	40.9532	6.923778	31.18907
2138	7.03560	3.1832866	40.7444	6.925661	31.17135
2139	7.02842	3.1814682	40.5384	6.927414	31.15822
2140	7.02567	3.1801341	40.3327	6.928395	31.14635
2141	7.02307	3.1766479	40.1268	6.930406	31.11100
2142	7.00030	3.1741430	39.9207	6.934393	31.10448
2143	6.95980	3.1724819	39.7150	6.940132	31.12316
2144	6.89994	3.1725382	39.5060	6.947398	31.17807
2145	6.80928	3.1737790	39.3001	6.957852	31.27407
2146	6.70871	3.1754726	39.0849	6.969311	31.38453
2147	6.64669	3.1760189	38.8671	6.976633	31.44749
2148	6.62351	3.1758702	38.6550	6.979544	31.46726
2149	6.60735	3.1753556	38.4431	6.981779	31.47658
2150	6.59155	3.1745249	38.2341	6.984128	31.48210
2151	6.56491	3.1727520	37.9858	6.988281	31.48727
2152	6.50747	3.1751704	37.7618	6.994126	31.56696
2153	6.45585	3.1748733	37.5529	7.000622	31.61155
2154	6.42975	3.1742039	37.3408	7.004168	31.62845
2155	6.41546	3.1739621	37.1318	7.006047	31.63914
2156	6.40163	3.1738568	36.9290	7.007801	31.65091
2157	6.39118	3.1742351	36.7140	7.008893	31.66489
2158	6.38156	3.1746319	36.5080	7.009875	31.67831
2159	6.38488	3.1753573	36.2990	7.009094	31.68333
2160	6.39871	3.1759586	36.0966	7.007082	31.67722
2161	6.41131	3.1761692	35.8843	7.005419	31.66794
2162	6.42155	3.1761877	35.6785	7.004143	31.65873
2163	6.43211	3.1762929	35.4728	7.002786	31.65019
2164	6.43918	3.1766277	35.2725	7.001742	31.64742
2165	6.44446	3.1765655	35.0667	7.001119	31.64193
2166	6.44498	3.1764724	34.8637	7.001098	31.64053
2167	6.44764	3.1762925	34.6579	7.000856	31.63617
2168	6.44544	3.1758708	34.4337	7.001335	31.63367
2169	6.44072	3.1757715	34.2221	7.001961	31.63705
2170	6.43816	3.1757467	34.0159	7.002284	31.63925
2171	6.43693	3.1753560	33.8041	7.002628	31.63618
2172	6.43262	3.1752940	33.5948	7.003185	31.63959
2173	6.42934	3.1754117	33.3923	7.003525	31.64402
2174	6.42540	3.1750831	33.1892	7.004172	31.64415
2175	6.41822	3.1747793	32.9833	7.005205	31.64756
2176	6.40931	3.1744135	32.7714	7.006483	31.65189
2177	6.39973	3.1743577	32.5594	7.007687	31.66027
2178	6.38944	3.1744446	32.3502	7.008908	31.67089
2179	6.37900	3.1741718	32.1442	7.010329	31.67768
2180	6.36845	3.1735705	31.9325	7.011929	31.68093
2181	6.35842	3.1733287	31.7207	7.013284	31.68769
2182	6.34978	3.1735395	31.5205	7.014240	31.69816
2183	6.34119	3.1733598	31.2996	7.015386	31.70427
2184	6.33249	3.1728763	31.0935	7.016700	31.70711
2185	6.32283	3.1728143	30.8817	7.017920	31.71553
2186	6.31312	3.1725726	30.6789	7.019238	31.72200
2187	6.30479	3.1722689	30.4726	7.020417	31.72649
2188	6.29754	3.1719404	30.2699	7.021476	31.72972
2189	6.28992	3.1718474	30.0702	7.022459	31.73588
2190	6.28186	3.1718784	29.8673	7.023437	31.74385
2191	6.27435	3.1718165	29.6459	7.024392	31.75027
2192	6.26812	3.1717545	29.4432	7.025189	31.75549
2193	6.26327	3.1715437	29.2373	7.025892	31.75778
2194	6.25888	3.1714631	29.0283	7.026471	31.76109
2195	6.25393	3.1713640	28.8284	7.027130	31.76471
2196	6.24857	3.1711532	28.6195	7.027895	31.76748
2197	6.24469	3.1713020	28.4074	7.028295	31.77285
2198	6.24454	3.1713639	28.1893	7.028278	31.77378
2199	6.24520	3.1715125	27.9773	7.028115	31.77491
2200	6.24480	3.1718472	27.7716	7.027991	31.77911
2201	6.24439	3.1719959	27.5534	7.027961	31.78124
2202	6.24490	3.1720888	27.3414	7.027846	31.78190
2203	6.24623	3.1722127	27.1293	7.027614	31.78213
2204	6.24975	3.1724543	26.9203	7.027051	31.78162
2205	6.25628	3.1728447	26.7113	7.026040	31.77994
2206	6.26363	3.1735389	26.4904	7.024773	31.78088
2207	6.27363	3.1744129	26.2784	7.023087	31.78132
2208	6.28834	3.1750823	26.0691	7.020926	31.77510
2209	6.30775	3.1760184	25.8514	7.018048	31.76745
2210	6.33004	3.1769236	25.6391	7.014835	31.75678
2211	6.35285	3.1773202	25.4304	7.011816	31.74000
2212	6.37628	3.1775246	25.2272	7.008819	31.72053
2213	6.39881	3.1780763	25.0214	7.005761	31.70577
2214	6.42242	3.1789506	24.8093	7.002408	31.69357
2215	6.44498	3.1800733	24.6186	6.999065	31.68509
2216	6.46815	3.1811650	24.4095	6.995661	31.67571
2217	6.49124	3.1817728	24.2008	6.992515	31.66109
2218	6.51306	3.1826786	23.9948	6.989378	31.65093
2219	6.53556	3.1832803	23.7918	6.986312	31.63681
2220	6.56352	3.1838014	23.5830	6.982618	31.61677
2221	6.58502	3.1842853	23.3710	6.979738	31.60231
2222	6.60503	3.1849554	23.1588	6.976948	31.59128
2223	6.63165	3.1858305	22.9528	6.973251	31.57641
2224	6.65045	3.1863207	22.7409	6.970703	31.56455
2225	6.66379	3.1871712	22.5346	6.968644	31.56167
2226	6.67503	3.1880466	22.3351	6.966832	31.56100
2227	6.68941	3.1888538	22.1232	6.964670	31.55669
2228	6.70979	3.1895988	21.9113	6.961809	31.54618
2229	6.73017	3.1899961	21.7020	6.959121	31.53187
2230	6.74752	3.1904804	21.5051	6.956762	31.52131
2231	6.76229	3.1908156	21.2933	6.954791	31.51150
2232	6.77547	3.1912689	21.0904	6.952958	31.50444
2233	6.79356	3.1920639	20.8752	6.950358	31.49662
2234	6.80959	3.1930952	20.6632	6.947894	31.49327
2235	6.82713	3.1937350	20.4602	6.945442	31.48427
2236	6.84291	3.1944370	20.2481	6.943173	31.47755
2237	6.85880	3.1947973	20.0362	6.941060	31.46702
2238	6.87533	3.1956859	19.8211	6.938612	31.46167
2239	6.89196	3.1964130	19.6093	6.936232	31.45447
2240	6.91171	3.1968106	19.4032	6.933636	31.44083
2241	6.92721	3.1978175	19.1942	6.931258	31.43771
2242	6.94241	3.1982401	18.9883	6.929205	31.42851
2243	6.95751	3.1986689	18.7790	6.927161	31.41948
2244	6.97174	3.1992470	18.5735	6.925152	31.41288
2245	6.98301	3.1997443	18.3735	6.923541	31.40809
2246	6.99407	3.2005589	18.1703	6.921800	31.40694
2247	7.00862	3.2008945	17.9645	6.919873	31.39741
2248	7.02504	3.2014168	17.7587	6.917628	31.38821
2249	7.04101	3.2022377	17.5496	6.915295	31.38267
2250	7.05412	3.2026978	17.3103	6.913483	31.37583
2251	7.06400	3.2019636	17.0984	6.912642	31.35897
2252	7.06125	3.2023617	16.8986	6.912777	31.36589
2253	7.01642	3.2035193	16.7044	6.917624	31.41939
2254	6.98441	3.2035506	16.4954	6.921473	31.44905
2255	7.00623	3.2031522	16.2805	6.919025	31.42489
2256	7.04278	3.2036743	16.0808	6.914351	31.39732
2257	7.07296	3.2046197	15.8656	6.910244	31.38019
2258	7.09941	3.2051110	15.6565	6.906812	31.36154
2259	7.12113	3.2054156	15.4472	6.904041	31.34519
2260	7.13724	3.2061187	15.2385	6.901756	31.33827
2261	7.15663	3.2072823	15.0416	6.898853	31.33334
2262	7.17427	3.2074626	14.8295	6.896640	31.31938
2263	7.18737	3.2076740	14.6325	6.894958	31.30988
2264	7.20266	3.2081345	14.4360	6.892892	31.30108
2265	7.21932	3.2083210	14.2269	6.890796	31.28810
2266	7.23150	3.2085013	14.0329	6.889242	31.27912
2267	7.24216	3.2090552	13.8239	6.887691	31.27554
2268	7.25068	3.2093228	13.6241	6.886535	31.27081
2269	7.25957	3.2100324	13.4148	6.885122	31.27053
2270	7.26851	3.2103685	13.2120	6.883883	31.26616
2271	7.28431	3.2110097	13.0062	6.881676	31.25889
2272	7.29770	3.2112897	12.7970	6.879931	31.24990
2273	7.30896	3.2115013	12.5909	6.878476	31.24211
2274	7.31519	3.2119309	12.3912	6.877520	31.24120
2275	7.32514	3.2126968	12.2003	6.875957	31.24055
2276	7.33729	3.2130018	11.9973	6.874351	31.23296
2277	7.35154	3.2134626	11.8004	6.872421	31.22516
2278	7.36800	3.2137053	11.5947	6.870331	31.21303
2279	7.38467	3.2142283	11.3857	6.868082	31.20372
2280	7.40020	3.2145645	11.1947	6.866061	31.19344
2281	7.41227	3.2145020	10.9764	6.864645	31.18201
2282	7.42015	3.2150563	10.7677	6.863435	31.18098
2283	7.43059	3.2157914	10.5675	6.861833	31.17956
2284	7.44251	3.2162087	10.3585	6.860207	31.17342
2285	7.45187	3.2166198	10.1497	6.858891	31.16952
2286	7.46705	3.2169872	9.9344	6.856900	31.15992
2287	7.48492	3.2174793	9.7318	6.854530	31.14924
2288	7.49686	3.2173233	9.5348	6.853177	31.13695
2289	7.50202	3.2175102	9.3347	6.852470	31.13442
2290	7.50438	3.2179713	9.1349	6.851965	31.13732
2291	7.50817	3.2180023	8.9257	6.851495	31.13435
2292	7.51985	3.2188934	8.7170	6.849677	31.13352
2293	7.53380	3.2191052	8.5198	6.847912	31.12337
2294	7.54796	3.2198093	8.3168	6.845888	31.11831
2295	7.56087	3.2196595	8.1080	6.844420	31.10525
2296	7.56877	3.2203015	7.9020	6.843172	31.10514
2297	7.57504	3.2204572	7.6959	6.842348	31.10128
2298	7.58742	3.2209807	7.4927	6.840624	31.09589
2299	7.60045	3.2211302	7.2991	6.839002	31.08593
2300	7.61062	3.2218096	7.0840	6.837468	31.08419
2301	7.61658	3.2215351	6.8870	6.836886	31.07602
2302	7.62481	3.2215038	6.6962	6.835919	31.06842
2303	7.62988	3.2214413	6.4842	6.835343	31.06332
2304	7.63943	3.2216532	6.2903	6.834105	31.05714
2305	7.65305	3.2220520	6.0904	6.832297	31.04934
2306	7.66509	3.2225445	5.8814	6.830633	31.04394
2307	7.67391	3.2229434	5.6815	6.829395	31.04042
2308	7.68125	3.2233736	5.4787	6.828318	31.03855
2309	7.70017	3.2236540	5.2755	6.825940	31.02477
2310	7.71857	3.2240529	5.0725	6.823569	31.01273
2311	7.73005	3.2238968	4.8667	6.822279	31.00094
2312	7.73560	3.2243582	4.6787	6.821401	31.00100
2313	7.73693	3.2243581	4.4728	6.821241	30.99991
2314	7.74418	3.2244827	4.2698	6.820320	30.99488
2315	7.74968	3.2248506	4.0728	6.819492	30.99399
2316	7.75238	3.2251936	3.8758	6.819009	30.99533
2317	7.75153	3.2252809	3.6669	6.819064	30.99711
2318	7.76741	3.2256861	3.4699	6.816991	30.98739
2319	7.78086	3.2259292	3.2640	6.815283	30.97811
2320	7.78383	3.2258979	3.0550	6.814943	30.97524
2321	7.78515	3.2260850	2.8458	6.814695	30.97615
2322	7.79400	3.2264217	2.6431	6.813488	30.97196
2323	7.81128	3.2256230	2.4279	6.811816	30.94823
2324	7.82601	3.2256539	2.2127	6.810056	30.93559
2325	7.83954	3.2259282	1.9947	6.808327	30.92662
2326	7.84797	3.2248489	1.7945	6.807830	30.90778
2327	7.86278	3.2250046	1.5945	6.806006	30.89642
2328	7.86787	3.2251916	1.4098	6.805314	30.89398
2329	7.86994	3.2250980	1.2371	6.805110	30.89123
2330	7.87944	3.2262956	1.0766	6.803428	30.89559
2331	7.88799	3.2268819	0.9039	6.802144	30.89433
2332	7.91721	3.2283291	0.7252	6.798024	30.88391
2333	7.95603	3.2297453	0.5374	6.792794	30.86471
2334	7.98636	3.2295015	0.3679	6.789335	30.83546
2335	8.00372	3.2314113	0.2374	6.786409	30.84040
2336	8.02284	3.2364127	0.1284	6.781851	30.87644
2337	8.07542	3.2371555	0.1253	6.775345	30.83796
2338	8.17547	3.2116752	0.1253	6.775304	30.48225
2339	8.42535	3.1715435	0.1191	6.764167	29.84824
2340	8.82115	3.1323681	0.1253	6.735096	29.11312
2341	9.25488	2.6876234	0.1221	6.877751	24.29298
2342	9.57974	0.7705936	0.1223	7.660867	6.20814
2343	9.65176	0.7038050	0.1251	7.676551	5.62146
2344	9.65987	0.6217770	0.1221	7.709370	4.92150
2345	9.64526	0.6953465	0.1251	7.681214	5.55006
2346	9.62411	0.8055579	0.1191	7.638526	6.50315
2347	9.60525	0.5667201	0.1191	7.741829	4.46359
2348	9.58689	0.4861133	0.1189	7.778433	3.79101
2349	9.56832	0.4730293	0.1190	7.787141	3.68419
2350	9.54954	0.8003130	0.1218	7.653471	6.47105
2351	9.50570	1.2005915	0.1220	7.489536	10.02962
2352	9.44334	0.7648232	0.1250	7.686776	6.18162
2353	9.41926	0.9840562	0.1251	7.597032	8.11179
2354	9.40673	0.7046422	0.1219	7.718699	5.66705
2355	9.39139	0.5471863	0.1188	7.787885	4.32495
2356	9.36988	0.4623496	0.1188	7.827202	3.61542
2357	9.34624	0.6517444	0.1220	7.751749	5.22117
2358	9.32635	0.4922227	0.1186	7.822574	3.86974
2359	9.30835	0.5068671	0.1248	7.819673	3.99472
2360	9.29090	0.4411574	0.1217	7.850326	3.44666
2361	9.27500	0.3550020	0.1248	7.888972	2.73664
2362	9.25422	0.3079520	0.1215	7.912142	2.35476
2363	9.23059	0.2706649	0.1218	7.931753	2.05524
2364	9.20807	0.2398580	0.1186	7.948460	1.80984
2365	9.18864	0.2348128	0.1217	7.954138	1.77060
2366	9.17344	0.2283994	0.1216	7.959581	1.72029
2367	9.16434	0.2102816	0.1215	7.968604	1.57699
2368	9.15562	0.1971130	0.1244	7.975541	1.47340
2369	9.14411	0.1766679	0.1275	7.985901	1.31331
2370	9.13205	0.1565729	0.1185	7.996183	1.15707
2371	9.12065	0.1482552	0.1214	8.001642	1.09292
2372	9.11107	0.1421104	0.1242	8.005894	1.04568
2373	9.10170	0.1409083	0.1216	8.008149	1.03667
2374	9.09119	0.1391293	0.1245	8.010852	1.02324
2375	9.07953	0.1382337	0.1244	8.013424	1.01665
2376	9.06864	0.1717742	0.1213	8.002143	1.27773
2377	9.05803	0.2064712	0.1182	7.990178	1.55144
2378	9.04786	0.2285117	0.1273	7.983143	1.72721
2379	9.03845	0.2124916	0.1241	7.991435	1.60007
2380	9.02861	0.1873313	0.1208	8.003480	1.40140
2381	9.01812	0.1679592	0.1243	8.013266	1.24964
2382	9.00785	0.1519965	0.1243	8.021609	1.12543
2383	8.99862	0.1427610	0.1211	8.027052	1.05399
2384	8.99081	0.1476888	0.1272	8.026578	1.09246
2385	8.98563	0.1565499	0.1179	8.024026	1.16160
2386	8.98093	0.1536597	0.1239	8.026078	1.13922
2387	8.97433	0.1540691	0.1208	8.027174	1.14262
2388	8.96680	0.1458718	0.1210	8.031889	1.07907
2389	8.95828	0.1401467	0.1241	8.035800	1.03490
2390	8.94966	0.1332731	0.1238	8.040187	0.98194
2391	8.94148	0.1245956	0.1207	8.045200	0.91522
2392	8.93380	0.1187556	0.1207	8.048988	0.87051
2393	8.92693	0.1225550	0.1205	8.048801	0.89988
2394	8.92235	0.1165868	0.1236	8.052044	0.85413
2395	8.91712	0.1005802	0.1238	8.059357	0.73194
2396	8.91150	0.0892048	0.1206	8.064891	0.64579
2397	8.90622	0.0816727	0.1266	8.068843	0.58908
2398	8.90137	0.0765629	0.1204	8.071762	0.55079
2399	8.89701	0.0727557	0.1204	8.074078	0.52234
