Scan Count	Temperature [ITS-90, deg C]	Conductivity [S/m]	Depth [salt water, m]	Oxygen Saturation, Weiss [ml/l]	Salinity, Practical [PSU]
1	11.80743	0.0058890	-0.0309	7.564634	0.03891
2	11.80766	0.0064179	-0.0398	7.564441	0.04214
3	11.80784	0.0062664	-0.0339	7.564454	0.04121
4	11.80796	0.0062911	-0.0338	7.564427	0.04136
5	11.80802	0.0062911	-0.0340	7.564416	0.04136
6	11.80802	0.0061736	-0.0278	7.564450	0.04064
7	11.80802	0.0060839	-0.0279	7.564476	0.04010
8	11.80772	0.0059725	-0.0340	7.564559	0.03942
9	11.80796	0.0058519	-0.0278	7.564554	0.03868
10	11.80831	0.0057901	-0.0278	7.564510	0.03831
11	11.80843	0.0057622	-0.0340	7.564498	0.03814
12	11.80860	0.0057746	-0.0310	7.564464	0.03821
13	11.80884	0.0057901	-0.0341	7.564419	0.03831
14	11.80837	0.0058086	-0.0342	7.564495	0.03842
15	11.80866	0.0058055	-0.0310	7.564445	0.03840
16	11.80896	0.0057808	-0.0281	7.564401	0.03825
17	11.80896	0.0057499	-0.0280	7.564410	0.03806
18	11.80884	0.0057375	-0.0311	7.564434	0.03799
19	11.80890	0.0057004	-0.0280	7.564435	0.03776
20	11.80931	0.0056293	-0.0280	7.564384	0.03733
21	11.80902	0.0055581	-0.0282	7.564455	0.03690
22	11.80902	0.0055272	-0.0281	7.564464	0.03671
23	11.80919	0.0054839	-0.0281	7.564446	0.03645
24	11.80919	0.0054468	-0.0250	7.564457	0.03622
25	11.80919	0.0054035	-0.0282	7.564469	0.03596
26	11.80931	0.0053232	-0.0192	7.564472	0.03547
27	11.80925	0.0053448	-0.0282	7.564476	0.03560
28	11.80931	0.0052984	-0.0311	7.564479	0.03532
29	11.80931	0.0052490	-0.0314	7.564493	0.03502
30	11.80954	0.0052180	-0.0282	7.564461	0.03484
31	11.80960	0.0051809	-0.0251	7.564462	0.03461
32	11.80925	0.0050975	-0.0313	7.564547	0.03411
33	11.80984	0.0050727	-0.0311	7.564452	0.03396
34	11.80978	0.0050727	-0.0373	7.564462	0.03396
35	11.80990	0.0051098	-0.0313	7.564431	0.03418
36	11.80972	0.0050820	-0.0283	7.564470	0.03401
37	11.80960	0.0051438	-0.0282	7.564472	0.03439
38	11.80925	0.0544794	0.0141	7.549213	0.35784
39	11.72081	3.0761318	0.1535	6.426698	26.34774
40	11.45859	3.1727210	0.2958	6.418587	27.45638
41	11.22633	3.2045095	0.4138	6.431734	27.93559
42	11.02877	3.2194962	0.5593	6.447550	28.23105
43	10.83345	3.2131798	0.6865	6.471583	28.31996
44	10.69998	3.2030778	0.7409	6.490412	28.32449
45	10.63030	3.2050385	0.7471	6.497371	28.39773
46	10.59886	3.1994463	0.7410	6.503124	28.36733
47	10.58366	3.1960953	0.7319	6.506170	28.34627
48	10.56767	3.2176312	0.7198	6.499256	28.57013
49	10.53873	3.2430412	0.7168	6.492200	28.84274
50	10.49522	3.2526675	0.7198	6.493119	28.97205
51	10.45771	3.2554595	0.7256	6.496135	29.02943
52	10.44263	3.2500838	0.7319	6.499988	28.98837
53	10.44932	3.2535629	0.7257	6.497834	29.01739
54	10.44705	3.2579828	0.7167	6.496290	29.06284
55	10.43197	3.2663094	0.7077	6.494574	29.15714
56	10.41797	3.2696825	0.7075	6.494749	29.20170
57	10.42625	3.2707485	0.7075	6.493402	29.20560
58	10.44087	3.2725610	0.7015	6.491052	29.21179
59	10.45255	3.2744116	0.7137	6.489013	29.22070
60	10.46418	3.2758797	0.7198	6.487137	29.22588
61	10.47325	3.2704031	0.7198	6.488357	29.16453
62	10.47870	3.2677131	0.7167	6.488846	29.13362
63	10.48143	3.2720588	0.7229	6.486785	29.17433
64	10.48052	3.2758796	0.7196	6.485337	29.21278
65	10.47484	3.2781767	0.7229	6.485031	29.24001
66	10.46707	3.2788610	0.7228	6.485609	29.25300
67	10.46072	3.2785158	0.7228	6.486449	29.25470
68	10.45658	3.2781392	0.7165	6.487057	29.25430
69	10.45505	3.2786414	0.7197	6.487022	29.26049
70	10.45816	3.2766329	0.7136	6.487493	29.23815
71	10.46406	3.2759425	0.7258	6.487124	29.22659
72	10.47394	3.2772917	0.7227	6.485489	29.23200
73	10.48171	3.2786725	0.7318	6.484074	29.23939
74	10.48568	3.2791433	0.7379	6.483446	29.24085
75	10.49142	3.2790177	0.7319	6.482866	29.23501
76	10.49993	3.2825275	0.7347	6.480508	29.26283
77	10.50459	3.2802104	0.7287	6.480934	29.23622
78	10.50629	3.2795197	0.7288	6.481026	29.22804
79	10.50703	3.2802417	0.7319	6.480653	29.23458
80	10.50709	3.2782956	0.7257	6.481434	29.21533
81	10.50902	3.2785153	0.7257	6.481133	29.21595
82	10.51231	3.2831617	0.7196	6.478890	29.25916
83	10.51277	3.2828476	0.7166	6.478968	29.25569
84	10.51311	3.2829104	0.7104	6.478905	29.25604
85	10.51862	3.2836013	0.7104	6.478020	29.25844
86	10.52759	3.2842921	0.7136	6.476754	29.25805
87	10.53458	3.2833813	0.7135	6.476355	29.24346
88	10.53799	3.2830672	0.7136	6.476107	29.23763
89	10.53646	3.2834441	0.7165	6.476123	29.24258
90	10.53419	3.2840408	0.7135	6.476132	29.25029
91	10.53078	3.2832243	0.7107	6.476836	29.24497
92	10.52379	3.2810578	0.7044	6.478480	29.22921
93	10.51544	3.2809323	0.6955	6.479448	29.23466
94	10.49749	3.2816232	0.6955	6.481142	29.25587
95	10.47377	3.2815104	0.6924	6.483797	29.27381
96	10.45459	3.2815609	0.6894	6.485887	29.28972
97	10.44195	3.2824402	0.6864	6.486922	29.30858
98	10.43554	3.2822518	0.6893	6.487704	29.31187
99	10.43038	3.2821263	0.6830	6.488323	29.31478
100	10.43327	3.2752839	0.6893	6.490784	29.24480
101	10.44223	3.2721533	0.6863	6.491068	29.20668
102	10.46735	3.2731880	0.6833	6.487877	29.19676
103	10.54578	3.2752827	0.6863	6.478395	29.15468
104	10.64682	3.2715866	0.6891	6.468780	29.03780
105	10.73271	3.2727461	0.6863	6.458895	28.98106
106	10.76809	3.2729025	0.6862	6.454958	28.95460
107	10.77060	3.2684310	0.6772	6.456468	28.90883
108	10.76797	3.2669326	0.6681	6.457354	28.89624
109	10.76871	3.2664938	0.6711	6.457448	28.89136
110	10.77506	3.2689325	0.6772	6.455779	28.91022
111	10.78656	3.2679292	0.6741	6.454920	28.89133
112	10.79188	3.2627146	0.6833	6.456417	28.83612
113	10.79434	3.2542415	0.6862	6.459526	28.75131
114	10.81128	3.2400633	0.6802	6.463316	28.59950
115	10.84559	3.2010048	0.6893	6.475087	28.19196
116	10.88710	3.1146807	0.6953	6.504809	27.32182
117	10.93015	3.0670656	0.6986	6.518877	26.82939
118	10.98498	3.0388784	0.6953	6.523836	26.51773
119	11.05014	3.0482746	0.7045	6.512720	26.56117
120	11.10699	3.0559461	0.6924	6.503261	26.59390
121	11.14983	3.0693647	0.6953	6.493151	26.69182
122	11.17837	3.0853874	0.6922	6.483655	26.82496
123	11.19728	3.1003665	0.7012	6.475668	26.95501
124	11.19775	3.1075773	0.7105	6.472794	27.02393
125	11.17895	3.1216425	0.7225	6.469383	27.17292
126	11.15318	3.1355652	0.7379	6.466797	27.32595
127	11.12234	3.1454822	0.7257	6.466334	27.44443
128	11.09118	3.1595381	0.7196	6.464270	27.60335
129	11.06097	3.1713058	0.7045	6.462988	27.73978
130	11.03539	3.1702773	0.7105	6.466229	27.74911
131	11.01179	3.1697942	0.7105	6.469038	27.76225
132	10.99619	3.1691314	0.7257	6.471031	27.76760
133	10.98153	3.1643681	0.7226	6.474543	27.73252
134	10.96962	3.1716973	0.7225	6.472966	27.81255
135	10.96479	3.1805963	0.7318	6.469980	27.90250
136	10.95841	3.1888775	0.7347	6.467409	27.98770
137	10.94721	3.1933817	0.7409	6.466866	28.03997
138	10.92354	3.1940842	0.7408	6.469206	28.06486
139	10.89519	3.1966080	0.7377	6.471344	28.11109
140	10.87368	3.1991388	0.7468	6.472720	28.15220
141	10.86227	3.2036609	0.7469	6.472185	28.20498
142	10.85986	3.2065048	0.7498	6.471320	28.23453
143	10.85270	3.2083972	0.7529	6.471360	28.25848
144	10.83883	3.2107571	0.7560	6.471954	28.29216
145	10.82566	3.2135786	0.7499	6.472286	28.32984
146	10.81672	3.2147748	0.7469	6.472797	28.34842
147	10.81294	3.2144010	0.7498	6.473364	28.34769
148	10.81289	3.2140958	0.7498	6.473492	28.34476
149	10.81283	3.2147997	0.7530	6.473218	28.35167
150	10.81157	3.2155972	0.7439	6.473039	28.36043
151	10.80962	3.2166441	0.7470	6.472837	28.37215
152	10.80980	3.2180276	0.7652	6.472266	28.38550
153	10.81203	3.2183953	0.7589	6.471873	28.38737
154	10.81415	3.2169182	0.7651	6.472228	28.37131
155	10.81632	3.2202653	0.7591	6.470653	28.40229
156	10.81403	3.2245118	0.7560	6.469213	28.44550
157	10.80871	3.2251918	0.7469	6.469530	28.45627
158	10.80127	3.2185761	0.7379	6.472990	28.39748
159	10.79308	3.2075699	0.7499	6.478287	28.29639
160	10.78582	3.2055845	0.7591	6.479885	28.28262
161	10.78725	3.2155975	0.7591	6.475729	28.37925
162	10.79200	3.2239570	0.7560	6.471867	28.45719
163	10.79926	3.2261463	0.7500	6.470191	28.47293
164	10.80510	3.2303022	0.7560	6.467890	28.50897
165	10.81747	3.2286669	0.7620	6.467178	28.48338
166	10.82463	3.2289164	0.7681	6.466290	28.48026
167	10.82692	3.2334795	0.7682	6.464220	28.52301
168	10.83012	3.2345348	0.7590	6.463446	28.53081
169	10.83385	3.2400631	0.7561	6.460835	28.58187
170	10.82904	3.2417693	0.7440	6.460685	28.60229
171	10.81037	3.2423570	0.7500	6.462504	28.62259
172	10.78845	3.2424197	0.7561	6.464891	28.64033
173	10.76900	3.2405637	0.7561	6.467773	28.63739
174	10.74951	3.2387956	0.7591	6.470627	28.63534
175	10.73236	3.2399142	0.7621	6.472070	28.65970
176	10.72122	3.2423892	0.7560	6.472307	28.69266
177	10.71911	3.2428205	0.7620	6.472367	28.69854
178	10.70918	3.2402207	0.7499	6.474504	28.68087
179	10.69599	3.2366659	0.7501	6.477384	28.65638
180	10.68794	3.2325881	0.7470	6.479908	28.62273
181	10.68526	3.2297479	0.7471	6.481344	28.59701
182	10.69045	3.2276823	0.7501	6.481599	28.57271
183	10.69616	3.2245443	0.7471	6.482226	28.53753
184	10.69062	3.2212205	0.7531	6.484172	28.50930
185	10.68515	3.2199612	0.7500	6.485284	28.50124
186	10.68338	3.2202667	0.7592	6.485357	28.50561
187	10.68372	3.2211582	0.7593	6.484962	28.51407
188	10.68515	3.2203602	0.7561	6.485124	28.50514
189	10.69114	3.2154490	0.7471	6.486431	28.45240
190	10.70038	3.2157230	0.7412	6.485296	28.44789
191	10.69839	3.2181160	0.7261	6.484557	28.47287
192	10.69028	3.2187643	0.7259	6.485195	28.48553
193	10.68560	3.2191321	0.7352	6.485566	28.49277
194	10.68064	3.2211271	0.7473	6.485315	28.51617
195	10.67607	3.2207593	0.7443	6.485969	28.51613
196	10.67151	3.2187333	0.7380	6.487288	28.49984
197	10.66353	3.2224491	0.7441	6.486680	28.54247
198	10.65731	3.2238960	0.7413	6.486787	28.56151
199	10.64802	3.2233410	0.7381	6.488040	28.56333
200	10.63582	3.2253121	0.7472	6.488598	28.59219
201	10.63092	3.2277765	0.7504	6.488150	28.62020
202	10.62728	3.2268843	0.7533	6.488913	28.61430
203	10.61617	3.2277455	0.7444	6.489797	28.63145
204	10.59835	3.2281200	0.7441	6.491621	28.64910
205	10.58156	3.2297490	0.7383	6.492825	28.67828
206	10.56995	3.2327454	0.7412	6.492902	28.71685
207	10.56125	3.2340068	0.7352	6.493357	28.73610
208	10.55442	3.2333949	0.7414	6.494360	28.73545
209	10.55073	3.2318154	0.7443	6.495408	28.72283
210	10.55033	3.2300614	0.7384	6.496161	28.70590
211	10.55044	3.2295059	0.7352	6.496373	28.70035
212	10.55039	3.2282703	0.7414	6.496879	28.68824
213	10.55073	3.2278398	0.7504	6.497015	28.68373
214	10.54948	3.2285823	0.7625	6.496854	28.69201
215	10.54845	3.2279334	0.7626	6.497230	28.68644
216	10.54817	3.2312037	0.7687	6.495940	28.71882
217	10.54851	3.2368236	0.7594	6.493631	28.77383
218	10.55596	3.2368235	0.7537	6.492806	28.76796
219	10.56130	3.2370671	0.7504	6.492115	28.76614
220	10.55874	3.2381791	0.7476	6.491949	28.77909
221	10.55550	3.2389851	0.7476	6.491983	28.78958
222	10.55641	3.2402535	0.7537	6.491370	28.80133
223	10.55886	3.2392975	0.7566	6.491485	28.79000
224	10.56187	3.2343502	0.7567	6.493149	28.73898
225	10.56813	3.2389849	0.7536	6.490585	28.77962
226	10.57991	3.2460168	0.7566	6.486446	28.83946
227	10.58975	3.2478804	0.7537	6.484606	28.85001
228	10.59305	3.2484995	0.7507	6.483992	28.85349
229	10.59300	3.2488999	0.7535	6.483837	28.85747
230	10.59231	3.2504201	0.7597	6.483300	28.87295
231	10.59078	3.2453351	0.7506	6.485519	28.82418
232	10.59015	3.2448974	0.7507	6.485765	28.82037
233	10.59368	3.2431969	0.7537	6.486060	28.80088
234	10.59766	3.2353678	0.7661	6.488775	28.72081
235	10.59988	3.2359861	0.7751	6.488281	28.72514
236	10.60205	3.2372541	0.7780	6.487530	28.73589
237	10.60341	3.2362359	0.7719	6.487789	28.72481
238	10.60279	3.2397594	0.7659	6.486439	28.75992
239	10.60176	3.2368543	0.7537	6.487723	28.73219
240	10.60341	3.2317587	0.7570	6.489593	28.68085
241	10.60768	3.2347807	0.7569	6.487903	28.70717
242	10.61264	3.2372227	0.7660	6.486371	28.72725
243	10.61714	3.2381785	0.7691	6.485489	28.73310
244	10.62403	3.2394467	0.7661	6.484216	28.74013
245	10.63144	3.2383033	0.7541	6.483858	28.72309
246	10.63468	3.2375910	0.7449	6.483785	28.71355
247	10.63548	3.2366978	0.7448	6.484056	28.70416
248	10.63468	3.2348116	0.7571	6.484903	28.68627
249	10.62654	3.2365417	0.7631	6.485108	28.70965
250	10.60165	3.2372228	0.7660	6.487587	28.73590
251	10.57598	3.2371606	0.7723	6.490453	28.75549
252	10.56682	3.2370358	0.7754	6.491517	28.76148
253	10.56591	3.2377167	0.7753	6.491343	28.76889
254	10.55630	3.2377793	0.7813	6.492382	28.77708
255	10.53396	3.2377795	0.7721	6.494857	28.79471
256	10.51413	3.2380921	0.7571	6.496928	28.81344
257	10.50652	3.2379985	0.7511	6.497809	28.81854
258	10.49613	3.2366368	0.7482	6.499513	28.81334
259	10.45550	3.2405358	0.7541	6.502439	28.88392
260	10.39475	3.2444681	0.7603	6.507582	28.97099
261	10.34631	3.2462069	0.7571	6.512252	29.02679
262	10.31341	3.2471015	0.7603	6.515543	29.06193
263	10.28602	3.2468891	0.7692	6.518676	29.08173
264	10.25255	3.2491850	0.7755	6.521459	29.13131
265	10.21297	3.2527581	0.7815	6.524397	29.19859
266	10.17996	3.2515444	0.7877	6.528572	29.21309
267	10.16701	3.2443767	0.7726	6.532968	29.15223
268	10.17084	3.2415575	0.7543	6.533703	29.12113
269	10.16842	3.2467966	0.7391	6.531814	29.17518
270	10.15739	3.2563955	0.7422	6.529087	29.27957
271	10.13309	3.2595142	0.7513	6.530507	29.33027
272	10.10420	3.2603852	0.7634	6.533366	29.36234
273	10.08582	3.2603541	0.7726	6.535426	29.37692
274	10.08470	3.2533477	0.7725	6.538451	29.30795
275	10.09077	3.2502752	0.7696	6.539045	29.27242
276	10.08195	3.2526343	0.7575	6.539053	29.30307
277	10.08386	3.2530411	0.7513	6.538671	29.30559
278	10.10195	3.2527593	0.7577	6.536769	29.28814
279	10.10863	3.2532849	0.7634	6.535806	29.28798
280	10.11223	3.2543239	0.7576	6.534975	29.29542
281	10.11324	3.2542174	0.7515	6.534906	29.29355
282	10.11707	3.2523836	0.7515	6.535237	29.27219
283	10.14271	3.2522895	0.7486	6.532416	29.25055
284	10.17180	3.2534407	0.7577	6.528700	29.23854
285	10.19111	3.2544357	0.7698	6.526140	29.23286
286	10.19635	3.2549990	0.7790	6.525325	29.23424
287	10.19489	3.2551180	0.7882	6.525439	29.23660
288	10.19697	3.2549677	0.7940	6.525269	29.23342
289	10.20829	3.2528833	0.7821	6.524866	29.20359
290	10.22374	3.2530083	0.7729	6.523096	29.19242
291	10.24223	3.2527578	0.7608	6.521141	29.17507
292	10.26971	3.2547165	0.7516	6.517283	29.17244
293	10.28980	3.2569263	0.7607	6.514146	29.17822
294	10.29720	3.2596002	0.7698	6.512230	29.19879
295	10.28704	3.2593560	0.7760	6.513458	29.20453
296	10.28173	3.2570516	0.7699	6.514991	29.18594
297	10.28207	3.2568951	0.7640	6.515017	29.18412
298	10.27727	3.2604460	0.7519	6.514095	29.22321
299	10.26401	3.2625009	0.7640	6.514725	29.25427
300	10.23236	3.2639362	0.7701	6.517649	29.29403
301	10.19230	3.2628150	0.7760	6.522560	29.31524
302	10.17163	3.2587936	0.7670	6.526514	29.29193
303	10.16521	3.2570215	0.7581	6.527958	29.27948
304	10.16184	3.2569527	0.7489	6.528362	29.28152
305	10.18447	3.2594511	0.7490	6.524814	29.28811
306	10.19815	3.2621007	0.7550	6.522203	29.30341
307	10.20182	3.2644065	0.7762	6.520848	29.32337
308	10.20334	3.2635355	0.7794	6.521037	29.31348
309	10.20903	3.2607912	0.7824	6.521533	29.28160
310	10.21714	3.2586053	0.7824	6.521529	29.25333
311	10.21911	3.2572338	0.7884	6.521874	29.23811
312	10.21979	3.2559628	0.7884	6.522321	29.22494
313	10.23462	3.2544352	0.7825	6.521299	29.19783
314	10.26339	3.2535023	0.7794	6.518483	29.16546
315	10.30002	3.2524756	0.7735	6.514832	29.12589
316	10.34394	3.2521372	0.7704	6.510095	29.08738
317	10.37935	3.2530692	0.7614	6.505786	29.06830
318	10.40172	3.2543709	0.7643	6.502777	29.06332
319	10.41792	3.2546524	0.7674	6.500868	29.05317
320	10.42710	3.2545271	0.7675	6.499903	29.04461
321	10.43180	3.2549965	0.7643	6.499191	29.04549
322	10.43276	3.2559919	0.7704	6.498680	29.05455
323	10.42970	3.2565804	0.7797	6.498780	29.06280
324	10.42443	3.2564240	0.7888	6.499427	29.06546
325	10.42047	3.2552408	0.7796	6.500347	29.05694
326	10.41956	3.2537197	0.7706	6.501066	29.04264
327	10.42098	3.2531564	0.7615	6.501138	29.03595
328	10.42336	3.2545584	0.7647	6.500304	29.04790
329	10.42421	3.2566118	0.7738	6.499375	29.06750
330	10.42341	3.2568310	0.7828	6.499374	29.07030
331	10.42183	3.2563301	0.7887	6.499754	29.06661
332	10.42098	3.2549027	0.7891	6.500428	29.05319
333	10.41996	3.2536884	0.7767	6.501035	29.04201
334	10.41769	3.2528811	0.7737	6.501614	29.03584
335	10.41741	3.2539075	0.7647	6.501228	29.04621
336	10.41865	3.2561110	0.7678	6.500194	29.06699
337	10.41843	3.2572004	0.7708	6.499776	29.07794
338	10.41701	3.2579205	0.7830	6.499640	29.08618
339	10.41435	3.2577014	0.7829	6.500024	29.08614
340	10.40965	3.2559608	0.7860	6.501252	29.07269
341	10.40704	3.2548716	0.7770	6.501984	29.06401
342	10.40477	3.2541205	0.7709	6.502540	29.05840
343	10.40081	3.2545587	0.7679	6.502801	29.06589
344	10.39826	3.2552410	0.7619	6.502806	29.07468
345	10.39775	3.2564869	0.7589	6.502355	29.08740
346	10.39713	3.2585094	0.7651	6.501601	29.10789
347	10.39481	3.2589791	0.7709	6.501666	29.11439
348	10.38241	3.2591671	0.7772	6.502963	29.12617
349	10.35689	3.2589795	0.7832	6.505866	29.14475
350	10.33303	3.2575770	0.7984	6.509084	29.14998
351	10.32460	3.2562685	0.7926	6.510553	29.14377
352	10.32455	3.2555360	0.7863	6.510858	29.13656
353	10.32415	3.2549038	0.7772	6.511161	29.13062
354	10.33630	3.2545280	0.7713	6.509965	29.11716
355	10.35287	3.2547157	0.7590	6.508051	29.10576
356	10.36385	3.2552727	0.7622	6.506607	29.10250
357	10.36645	3.2558987	0.7682	6.506063	29.10661
358	10.36272	3.2563307	0.7773	6.506301	29.11387
359	10.36130	3.2567064	0.7894	6.506305	29.11871
360	10.36175	3.2557422	0.7895	6.506648	29.10881
361	10.36317	3.2541835	0.7865	6.507127	29.09225
362	10.36447	3.2535013	0.7865	6.507260	29.08446
363	10.36673	3.2532509	0.7774	6.507111	29.08018
364	10.38150	3.2531256	0.7653	6.505525	29.06714
365	10.39951	3.2530690	0.7595	6.503552	29.05221
366	10.41316	3.2533756	0.7655	6.501915	29.04435
367	10.41684	3.2537511	0.7715	6.501354	29.04512
368	10.41395	3.2537824	0.7746	6.501661	29.04773
369	10.41010	3.2536885	0.7777	6.502126	29.04988
370	10.41101	3.2533756	0.7838	6.502153	29.04606
371	10.41678	3.2527246	0.7777	6.501778	29.03502
372	10.42222	3.2525681	0.7807	6.501239	29.02914
373	10.42438	3.2523491	0.7837	6.501090	29.02526
374	10.42557	3.2524117	0.7869	6.500932	29.02492
375	10.42727	3.2530062	0.7749	6.500502	29.02945
376	10.43197	3.2535944	0.7686	6.499742	29.03151
377	10.43968	3.2532501	0.7657	6.499028	29.02197
378	10.44915	3.2523175	0.7660	6.498359	29.00522
379	10.45419	3.2521923	0.7719	6.497851	28.99996
380	10.45675	3.2526616	0.7748	6.497378	29.00256
381	10.45834	3.2521047	0.7750	6.497428	28.99580
382	10.46083	3.2517918	0.7721	6.497279	28.99073
383	10.46435	3.2518856	0.7598	6.496852	28.98886
384	10.46537	3.2528806	0.7629	6.496335	28.99787
385	10.46259	3.2534063	0.7781	6.496430	29.00526
386	10.45692	3.2535629	0.7781	6.496994	29.01132
387	10.44971	3.2530685	0.7872	6.497992	29.01217
388	10.44575	3.2527243	0.7811	6.498571	29.01194
389	10.44217	3.2525679	0.7781	6.499030	29.01324
390	10.43872	3.2527870	0.7781	6.499324	29.01816
391	10.43679	3.2529435	0.7781	6.499473	29.02124
392	10.43548	3.2525993	0.7843	6.499758	29.01887
393	10.43582	3.2521049	0.7752	6.499921	29.01373
394	10.43877	3.2520423	0.7692	6.499620	29.01076
395	10.44314	3.2519797	0.7510	6.499161	29.00667
396	10.44818	3.2523801	0.7600	6.498440	29.00661
397	10.45181	3.2529433	0.7691	6.497810	29.00927
398	10.45556	3.2530059	0.7752	6.497370	29.00691
399	10.45663	3.2529433	0.7904	6.497277	29.00543
400	10.45686	3.2526929	0.7964	6.497353	29.00277
401	10.45720	3.2524113	0.7934	6.497430	28.99972
402	10.45794	3.2521610	0.7876	6.497450	28.99667
403	10.45805	3.2520108	0.7845	6.497498	28.99510
404	10.45726	3.2521360	0.7754	6.497535	28.99697
405	10.45794	3.2521610	0.7664	6.497449	28.99668
406	10.46009	3.2518543	0.7634	6.497335	28.99194
407	10.46123	3.2517918	0.7664	6.497235	28.99042
408	10.46106	3.2524739	0.7665	6.496977	28.99728
409	10.46038	3.2526616	0.7755	6.496976	28.99967
410	10.45947	3.2527555	0.7786	6.497039	29.00132
411	10.45828	3.2528807	0.7787	6.497120	29.00350
412	10.45635	3.2528744	0.7816	6.497336	29.00498
413	10.45357	3.2528181	0.7847	6.497666	29.00663
414	10.45091	3.2526930	0.7817	6.498012	29.00752
415	10.44971	3.2523175	0.7757	6.498296	29.00476
416	10.44971	3.2522862	0.7696	6.498309	29.00446
417	10.44932	3.2525366	0.7698	6.498251	29.00724
418	10.44767	3.2527869	0.7758	6.498332	29.01102
419	10.44501	3.2529121	0.7818	6.498576	29.01438
420	10.44172	3.2530373	0.7848	6.498889	29.01823
421	10.43792	3.2529748	0.7880	6.499335	29.02064
422	10.43492	3.2527557	0.7789	6.499757	29.02087
423	10.43333	3.2526619	0.7788	6.499971	29.02121
424	10.43310	3.2529122	0.7819	6.499894	29.02386
425	10.43225	3.2531000	0.7850	6.499912	29.02639
426	10.42823	3.2530062	0.7912	6.500396	29.02867
427	10.42234	3.2527559	0.7761	6.501150	29.03090
428	10.41854	3.2526933	0.7790	6.501596	29.03331
429	10.41673	3.2529750	0.7759	6.501682	29.03754
430	10.41469	3.2529750	0.7790	6.501908	29.03916
431	10.41219	3.2530063	0.7822	6.502172	29.04146
432	10.41021	3.2533130	0.7732	6.502267	29.04608
433	10.40772	3.2535321	0.7732	6.502454	29.05023
434	10.40302	3.2537199	0.7761	6.502898	29.05584
435	10.39956	3.2538451	0.7882	6.503230	29.05983
436	10.40223	3.2533131	0.7854	6.503152	29.05244
437	10.40562	3.2529125	0.7792	6.502938	29.04578
438	10.40659	3.2528186	0.7822	6.502870	29.04408
439	10.40608	3.2530690	0.7793	6.502824	29.04696
440	10.40670	3.2541204	0.7734	6.502327	29.05686
441	10.41078	3.2542456	0.7854	6.501825	29.05484
442	10.41565	3.2540265	0.7763	6.501374	29.04879
443	10.41837	3.2541203	0.7855	6.501035	29.04754
444	10.41962	3.2544646	0.7856	6.500757	29.04995
445	10.42183	3.2546523	0.7853	6.500436	29.05004
446	10.42506	3.2546210	0.7886	6.500091	29.04715
447	10.42795	3.2542767	0.7795	6.499911	29.04145
448	10.42857	3.2540013	0.7796	6.499954	29.03823
449	10.42789	3.2541828	0.7734	6.499955	29.04057
450	10.42727	3.2544958	0.7796	6.499897	29.04416
451	10.42795	3.2550279	0.7796	6.499605	29.04887
452	10.42999	3.2551781	0.7826	6.499318	29.04873
453	10.43214	3.2547148	0.7766	6.499268	29.04244
454	10.43310	3.2542141	0.7737	6.499365	29.03672
455	10.43254	3.2541828	0.7706	6.499440	29.03687
456	10.43214	3.2549026	0.7736	6.499192	29.04429
457	10.43248	3.2558041	0.7767	6.498788	29.05292
458	10.43475	3.2562673	0.7858	6.498349	29.05569
459	10.43736	3.2553971	0.7889	6.498414	29.04501
460	10.43826	3.2541514	0.7797	6.498819	29.03199
461	10.43798	3.2539073	0.7738	6.498950	29.02981
462	10.43787	3.2548087	0.7739	6.498596	29.03880
463	10.43804	3.2565177	0.7830	6.497883	29.05554
464	10.43877	3.2572315	0.7889	6.497512	29.06200
465	10.43968	3.2560857	0.7890	6.497877	29.04996
466	10.43906	3.2541827	0.7860	6.498719	29.03166
467	10.43713	3.2538447	0.7769	6.499069	29.02987
468	10.43588	3.2549714	0.7708	6.498750	29.04199
469	10.43577	3.2568621	0.7739	6.497994	29.06075
470	10.43543	3.2577951	0.7770	6.497653	29.07024
471	10.43520	3.2571439	0.7768	6.497942	29.06398
472	10.43463	3.2557727	0.7770	6.498562	29.05089
473	10.43350	3.2561108	0.7710	6.498550	29.05514
474	10.43265	3.2578891	0.7740	6.497922	29.07338
475	10.43316	3.2589474	0.7771	6.497435	29.08343
476	10.43486	3.2590413	0.7802	6.497209	29.08300
477	10.43656	3.2576386	0.7832	6.497591	29.06778
478	10.43741	3.2567682	0.7712	6.497850	29.05851
479	10.43730	3.2577951	0.7771	6.497446	29.06874
480	10.43747	3.2599432	0.7863	6.496554	29.08982
481	10.43934	3.2604756	0.7864	6.496131	29.09358
482	10.44149	3.2594170	0.7834	6.496323	29.08141
483	10.44246	3.2582334	0.7741	6.496697	29.06896
484	10.44223	3.2587907	0.7712	6.496496	29.07464
485	10.44246	3.2610644	0.7712	6.495547	29.09692
486	10.44393	3.2622484	0.7744	6.494903	29.10743
487	10.44626	3.2623737	0.7804	6.494596	29.10681
488	10.44830	3.2612523	0.7744	6.494825	29.09411
489	10.44909	3.2610080	0.7805	6.494837	29.09106
490	10.44926	3.2620980	0.7774	6.494376	29.10169
491	10.44983	3.2623110	0.7805	6.494226	29.10334
492	10.45096	3.2603502	0.7896	6.494897	29.08306
493	10.45096	3.2576697	0.7896	6.495986	29.05660
494	10.45062	3.2560856	0.7805	6.496666	29.04124
495	10.44909	3.2554283	0.7865	6.497102	29.03596
496	10.44779	3.2559604	0.7776	6.497031	29.04226
497	10.44796	3.2576697	0.7806	6.496318	29.05900
498	10.44739	3.2592604	0.7834	6.495735	29.07516
499	10.44603	3.2590099	0.7867	6.495987	29.07377
500	10.44484	3.2572315	0.7837	6.496841	29.05716
501	10.44421	3.2560857	0.7868	6.497375	29.04634
502	10.44370	3.2568933	0.7776	6.497103	29.05473
503	10.44325	3.2598492	0.7808	6.495953	29.08428
504	10.44251	3.2617535	0.7837	6.495261	29.10367
505	10.44183	3.2622485	0.7867	6.495135	29.10910
506	10.44149	3.2621294	0.7868	6.495221	29.10820
507	10.44155	3.2615656	0.7900	6.495444	29.10258
508	10.44178	3.2618788	0.7838	6.495292	29.10550
509	10.44217	3.2632572	0.7900	6.494688	29.11879
510	10.44297	3.2641533	0.7840	6.494237	29.12701
511	10.44433	3.2644039	0.7809	6.493984	29.12840
512	10.44626	3.2649366	0.7779	6.493555	29.13212
513	10.44801	3.2664033	0.7780	6.492766	29.14520
514	10.44847	3.2736901	0.8081	6.489758	29.21681
515	10.43174	3.2792381	0.8688	6.489349	29.28506
516	10.36685	3.2709374	1.0082	6.499891	29.25505
517	10.23755	3.2642183	1.1749	6.516964	29.29249
518	10.11690	3.2635992	1.3291	6.530633	29.38385
519	10.02774	3.2627230	1.4807	6.540934	29.44748
520	9.97332	3.2633189	1.6533	6.546764	29.49771
521	9.94622	3.2640649	1.8894	6.549484	29.52721
522	9.93761	3.2621665	2.1076	6.551242	29.51515
523	9.92457	3.2624111	2.3349	6.552601	29.52816
524	9.91244	3.2618537	2.5590	6.554195	29.53240
525	9.90673	3.2627873	2.8073	6.554448	29.54633
526	9.90847	3.2621358	3.0709	6.554530	29.53827
527	9.90685	3.2611962	3.3102	6.555108	29.53008
528	9.90444	3.2612589	3.5736	6.555355	29.53257
529	9.90316	3.2610711	3.8250	6.555582	29.53164
530	9.89863	3.2602631	4.0764	6.556430	29.52714
531	9.84797	3.2432059	4.3370	6.569257	29.39730
532	9.62039	3.2252616	4.6065	6.602531	29.40243
533	9.35136	3.2218531	4.8700	6.634615	29.58903
534	9.14515	3.2182894	5.1305	6.659780	29.72376
535	8.97793	3.2140229	5.4211	6.680898	29.81969
536	8.84644	3.2124921	5.6908	6.696773	29.91434
537	8.73980	3.2103385	5.9575	6.710095	29.98206
538	8.64480	3.2089760	6.2208	6.721749	30.04837
539	8.56224	3.2076011	6.4813	6.731987	30.10423
540	8.48503	3.2060398	6.7689	6.741709	30.15376
541	8.42562	3.2055799	7.0445	6.748870	30.19969
542	8.38075	3.2051822	7.3353	6.754310	30.23389
543	8.34695	3.2051515	7.5958	6.758290	30.26249
544	8.31693	3.2039323	7.8835	6.762371	30.27543
545	8.28860	3.2028937	8.1561	6.766175	30.28883
546	8.25980	3.2021600	8.4379	6.769899	30.30584
547	8.23044	3.2011838	8.7103	6.773803	30.32081
548	8.20239	3.2011841	8.9740	6.777110	30.34493
549	8.18141	3.2009232	9.2586	6.779705	30.36020
550	8.16782	3.2007866	9.5402	6.781374	30.37039
551	8.15793	3.2002706	9.8069	6.782781	30.37341
552	8.14997	3.1999660	10.0855	6.783865	30.37699
553	8.14366	3.1999972	10.3519	6.784600	30.38266
554	8.13725	3.2000596	10.6216	6.785332	30.38875
555	8.12726	3.1984429	10.9001	6.787259	30.38029
556	8.10755	3.1969199	11.1786	6.790291	30.38122
557	8.08166	3.1963359	11.4423	6.793623	30.39740
558	8.05195	3.1955469	11.7056	6.797505	30.41476
559	8.01576	3.1944223	11.9874	6.802312	30.43422
560	7.98178	3.1944787	12.2722	6.806315	30.46424
561	7.95677	3.1948458	12.5568	6.809115	30.48978
562	7.93980	3.1945725	12.8355	6.811259	30.50156
563	7.92885	3.1944236	13.1230	6.812633	30.50941
564	7.92152	3.1949707	13.3927	6.813254	30.52148
565	7.91689	3.1951200	13.6592	6.813739	30.52698
566	7.91381	3.1953066	13.9196	6.814023	30.53153
567	7.91206	3.1956983	14.1832	6.814054	30.53709
568	7.91200	3.1958102	14.4589	6.814013	30.53820
569	7.90993	3.1962206	14.7224	6.814074	30.54423
570	7.90754	3.1961585	14.9736	6.814391	30.54555
571	7.90632	3.1963700	15.2280	6.814443	30.54875
572	7.90494	3.1963079	15.4975	6.814641	30.54918
573	7.90202	3.1965256	15.7610	6.814891	30.55392
574	7.89872	3.1967682	16.0215	6.815174	30.55925
575	7.89692	3.1967372	16.2639	6.815408	30.56039
576	7.89617	3.1963083	16.5394	6.815701	30.55639
577	7.89538	3.1963395	16.8059	6.815786	30.55729
578	7.89336	3.1964204	17.0694	6.815993	30.55980
579	7.89091	3.1962527	17.3421	6.816366	30.56004
580	7.88932	3.1961906	17.6024	6.816589	30.56066
581	7.88783	3.1956748	17.9265	6.817012	30.55636
582	7.88619	3.1960354	18.1839	6.817045	30.56150
583	7.88502	3.1963712	18.4414	6.817032	30.56597
584	7.88422	3.1962843	18.7079	6.817172	30.56562
585	7.88518	3.1962843	18.9682	6.817064	30.56467
586	7.88428	3.1962844	19.2287	6.817176	30.56535
587	7.88284	3.1965207	19.4982	6.817242	30.56899
588	7.88173	3.1967384	19.7617	6.817278	30.57215
589	7.88045	3.1967074	20.0221	6.817448	30.57282
590	7.88077	3.1964651	20.3009	6.817529	30.56985
591	7.88199	3.1965584	20.5643	6.817346	30.56966
592	7.88284	3.1965585	20.8250	6.817250	30.56880
593	7.88290	3.1967077	21.0822	6.817179	30.57022
594	7.88295	3.1966208	21.3517	6.817218	30.56913
595	7.88152	3.1967390	21.6091	6.817338	30.57153
596	7.87886	3.1967080	21.8725	6.817673	30.57341
597	7.87451	3.1966460	22.1361	6.818224	30.57644
598	7.86957	3.1968015	22.3904	6.818743	30.58230
599	7.86522	3.1967706	22.6478	6.819279	30.58567
600	7.86198	3.1967085	22.9022	6.819697	30.58773
601	7.85784	3.1966465	23.1597	6.820223	30.59059
602	7.85455	3.1965906	23.4261	6.820645	30.59276
603	7.85025	3.1964975	23.6806	6.821204	30.59542
604	7.84410	3.1963733	23.9533	6.821998	30.59938
605	7.83694	3.1959818	24.2166	6.823037	30.60139
606	7.82745	3.1960380	24.4740	6.824144	30.61019
607	7.81626	3.1959822	24.7315	6.825505	30.61930
608	7.80423	3.1955535	24.9950	6.827142	30.62519
609	7.77371	3.1949759	25.2616	6.831048	30.64574
610	7.71297	3.1944296	25.5219	6.838547	30.69325
611	7.62233	3.1944866	25.7824	6.849342	30.77374
612	7.54354	3.1945496	26.0369	6.858739	30.84412
613	7.48498	3.1946125	26.3123	6.865728	30.89672
614	7.44835	3.1947932	26.5606	6.870038	30.93118
615	7.42828	3.1946257	26.8333	6.872530	30.94715
616	7.41631	3.1946134	27.0937	6.873977	30.95759
617	7.40456	3.1945204	27.3542	6.875438	30.96697
618	7.38520	3.1945518	27.6117	6.877752	30.98449
619	7.36774	3.1944339	27.8751	6.879912	30.99872
620	7.35390	3.1939432	28.1718	6.881816	31.00570
621	7.34096	3.1942479	28.4475	6.883231	31.02044
622	7.32629	3.1942482	28.7201	6.885000	31.03346
623	7.31466	3.1944908	28.9742	6.886287	31.04638
624	7.30587	3.1944909	29.2289	6.887350	31.05415
625	7.29891	3.1945657	29.4859	6.888157	31.06109
626	7.29535	3.1945223	29.7466	6.888612	31.06370
627	7.29420	3.1944913	30.0009	6.888770	31.06428
628	7.29608	3.1945846	30.2463	6.888504	31.06348
629	7.29681	3.1945846	30.5006	6.888421	31.06271
630	7.29582	3.1944666	30.7490	6.888602	31.06222
631	7.29451	3.1944667	30.9975	6.888765	31.06328
632	7.29242	3.1944917	31.2458	6.889010	31.06532
633	7.28881	3.1941313	31.5093	6.889623	31.06456
634	7.28729	3.1940879	31.7726	6.889832	31.06533
635	7.28765	3.1943118	32.0361	6.889685	31.06730
636	7.28603	3.1941876	32.3026	6.889946	31.06729
637	7.28357	3.1941877	32.5601	6.890247	31.06939
638	7.27902	3.1943742	32.8084	6.890710	31.07537
639	7.27274	3.1942190	33.0657	6.891546	31.07922
640	7.26731	3.1941321	33.3232	6.892248	31.08305
641	7.26354	3.1942503	33.5805	6.892650	31.08759
642	7.25977	3.1941634	33.8380	6.893150	31.08992
643	7.25507	3.1942444	34.1015	6.893683	31.09491
644	7.24817	3.1942818	34.3529	6.894502	31.10140
645	7.23892	3.1942820	34.6040	6.895622	31.10961
646	7.22737	3.1943754	34.8584	6.896974	31.12090
647	7.21582	3.1944067	35.1066	6.898355	31.13152
648	7.20940	3.1943136	35.3704	6.899180	31.13618
649	7.20637	3.1943448	35.6186	6.899535	31.13913
650	7.20533	3.1944940	35.8731	6.899595	31.14157
651	7.20131	3.1945563	36.1243	6.900055	31.14575
652	7.19342	3.1947616	36.3697	6.900911	31.15496
653	7.18664	3.1947741	36.6332	6.901729	31.16110
654	7.18340	3.1949234	36.8905	6.902053	31.16551
655	7.18173	3.1948614	37.1450	6.902289	31.16623
656	7.18063	3.1948304	37.3993	6.902442	31.16677
657	7.17599	3.1947994	37.6597	6.903022	31.17050
658	7.16707	3.1948617	37.9142	6.904074	31.17911
659	7.16535	3.1947438	38.1745	6.904344	31.17928
660	7.16540	3.1945574	38.4713	6.904434	31.17708
661	7.16076	3.1943462	38.7651	6.905103	31.17885
662	7.15278	3.1947131	39.0255	6.905894	31.18991
663	7.14803	3.1948313	39.2677	6.906415	31.19536
664	7.14448	3.1947444	39.5282	6.906890	31.19751
665	7.13036	3.1944090	39.7797	6.908764	31.20653
666	7.08097	3.1941361	40.0403	6.914871	31.24816
667	7.00805	3.1942861	40.2914	6.923629	31.31586
668	6.94143	3.1945914	40.5548	6.931561	31.37972
669	6.89273	3.1950209	40.8214	6.937265	31.42873
670	6.85580	3.1948970	41.0878	6.941818	31.46105
671	6.82485	3.1946240	41.3331	6.945720	31.48632
672	6.79764	3.1944130	41.5875	6.949139	31.50886
673	6.77728	3.1942268	41.8571	6.951715	31.52541
674	6.76250	3.1942582	42.1206	6.953504	31.53921
675	6.75041	3.1943827	42.3869	6.954921	31.55156
676	6.74050	3.1943518	42.6353	6.956149	31.56023
677	6.73100	3.1945322	42.8868	6.957223	31.57083
678	6.72011	3.1948369	43.1440	6.958404	31.58408
679	6.70623	3.1952847	43.3955	6.959880	31.60165
680	6.69117	3.1954465	43.6589	6.961641	31.61720
681	6.67843	3.1956021	43.9132	6.963123	31.63054
682	6.66812	3.1955091	44.1768	6.964432	31.63892
683	6.65952	3.1953911	44.4343	6.965547	31.64545
684	6.65271	3.1952670	44.7007	6.966444	31.65025
685	6.64751	3.1953914	44.9582	6.967023	31.65631
686	6.64081	3.1955407	45.2248	6.967772	31.66401
687	6.63504	3.1956030	45.4849	6.968450	31.66991
688	6.62964	3.1956716	45.7424	6.969082	31.67555
689	6.62459	3.1959701	45.9847	6.969555	31.68338
690	6.61929	3.1959391	46.2419	6.970223	31.68783
691	6.61239	3.1958149	46.4936	6.971133	31.69273
692	6.59994	3.1957841	46.7479	6.972675	31.70381
693	6.58496	3.1959086	46.9961	6.974448	31.71894
694	6.57103	3.1957845	47.2445	6.976219	31.73039
695	6.55807	3.1956977	47.5110	6.977852	31.74134
696	6.54686	3.1958160	47.7594	6.979169	31.75293
697	6.53654	3.1960027	48.0228	6.980345	31.76445
698	6.52636	3.1963821	48.2773	6.981405	31.77797
699	6.51589	3.1965812	48.5619	6.982594	31.78977
700	6.50649	3.1974642	48.8190	6.983307	31.80812
701	6.49715	3.1979804	49.0707	6.984197	31.82239
702	6.48940	3.1978935	49.3189	6.985194	31.82854
703	6.48565	3.1980429	49.5914	6.985584	31.83355
704	6.48416	3.1980430	49.8517	6.985772	31.83481
705	6.48149	3.1980431	50.1154	6.986104	31.83718
706	6.47800	3.1980432	50.3788	6.986537	31.84031
707	6.47385	3.1990195	50.6361	6.986561	31.85483
708	6.46585	3.2004376	50.8967	6.986834	31.87781
709	6.45646	3.2010038	51.1660	6.987705	31.89270
710	6.44656	3.2013399	51.4387	6.988753	31.90553
711	6.43729	3.2015827	51.6991	6.989773	31.91676
712	6.42975	3.2016450	51.9566	6.990670	31.92438
713	6.42222	3.2016452	52.1956	6.991598	31.93131
714	6.41387	3.2017386	52.4562	6.992580	31.94004
715	6.40618	3.2016455	52.7134	6.993574	31.94609
716	6.39999	3.2014901	52.9802	6.994417	31.95005
717	6.39548	3.2014343	53.2404	6.995003	31.95353
718	6.39031	3.2011794	53.5041	6.995771	31.95543
719	6.38350	3.2006384	53.7613	6.996885	31.95571
720	6.37398	3.2001783	54.0278	6.998291	31.95942
721	6.36380	3.1999671	54.2881	6.999652	31.96651
722	6.35484	3.1997869	54.5455	7.000848	31.97279
723	6.34676	3.1996005	54.8030	7.001939	31.97819
724	6.33945	3.1994203	55.0574	7.002934	31.98294
725	6.33352	3.1992961	55.3179	7.003731	31.98701
726	6.32881	3.1991469	55.5813	7.004390	31.98965
727	6.32442	3.1998187	55.8388	7.004595	32.00110
728	6.32114	3.1997877	56.0991	7.005019	32.00370
729	6.31424	3.1992841	56.3595	7.006127	32.00448
730	6.30586	3.1993589	56.6229	7.007124	32.01307
731	6.29498	3.1996017	56.8926	7.008345	32.02586
732	6.28283	3.2004601	57.1529	7.009409	32.04670
733	6.27093	3.2009455	57.4012	7.010631	32.06317
734	6.26092	3.2010389	57.6588	7.011819	32.07351
735	6.25378	3.2010702	57.9161	7.012687	32.08047
736	6.24913	3.2013129	58.1704	7.013140	32.08742
737	6.24572	3.2015245	58.4551	7.013460	32.09286
738	6.24265	3.2017423	58.7185	7.013731	32.09804
739	6.24010	3.2018606	58.9758	7.013990	32.10164
740	6.23776	3.2018608	59.2454	7.014285	32.10373
741	6.23643	3.2018608	59.5029	7.014454	32.10486
742	6.23561	3.2019853	59.7542	7.014496	32.10689
743	6.23475	3.2018610	60.0115	7.014672	32.10620
744	6.23322	3.2017740	60.2687	7.014910	32.10656
745	6.23204	3.2017741	60.5295	7.015060	32.10754
746	6.23051	3.2018302	60.7838	7.015225	32.10948
747	6.22898	3.2017743	61.0501	7.015448	32.11018
748	6.22761	3.2014945	61.3107	7.015765	32.10825
749	6.22475	3.2013764	61.5771	7.016183	32.10950
750	6.22108	3.2013454	61.8374	7.016656	32.11250
751	6.21644	3.2011901	62.0948	7.017312	32.11503
752	6.21134	3.2011031	62.3585	7.017989	32.11876
753	6.20650	3.2011592	62.6219	7.018563	32.12383
754	6.20232	3.2012215	62.8703	7.019051	32.12835
755	6.19911	3.2011906	63.1246	7.019468	32.13092
756	6.19630	3.2011347	63.3789	7.019847	32.13283
757	6.19391	3.2010104	63.6361	7.020211	32.13359
758	6.19182	3.2010105	63.8999	7.020474	32.13544
759	6.19019	3.2009795	64.1693	7.020696	32.13650
760	6.18907	3.2009796	64.4297	7.020840	32.13744
761	6.18764	3.2009299	64.6933	7.021047	32.13811
762	6.18647	3.2009487	64.9507	7.021188	32.13930
763	6.18519	3.2009799	65.1990	7.021334	32.14073
764	6.18346	3.2009489	65.4533	7.021569	32.14191
765	6.18224	3.2008556	65.7135	7.021773	32.14190
766	6.18147	3.2008246	65.9711	7.021888	32.14215
767	6.18035	3.2007999	66.2315	7.022045	32.14281
768	6.17923	3.2007688	66.4888	7.022204	32.14340
769	6.17806	3.2007689	66.7460	7.022354	32.14439
770	6.17541	3.2007379	67.0128	7.022702	32.14642
771	6.17266	3.2007070	67.2580	7.023063	32.14856
772	6.16966	3.2006760	67.5124	7.023454	32.15094
773	6.16528	3.2006450	67.7639	7.024015	32.15462
774	6.16181	3.2006140	68.0181	7.024463	32.15743
775	6.15896	3.2005208	68.2785	7.024868	32.15896
776	6.15565	3.2002473	68.5631	7.025422	32.15892
777	6.15229	3.2002474	68.8388	7.025842	32.16197
778	6.14761	3.2002786	69.0990	7.026410	32.16662
779	6.14267	3.2002788	69.3505	7.027024	32.17118
780	6.13799	3.2001856	69.6081	7.027655	32.17445
781	6.13422	3.2002479	69.8562	7.028093	32.17860
782	6.13087	3.2001920	70.1195	7.028541	32.18103
783	6.12690	3.2002170	70.3863	7.029024	32.18494
784	6.12334	3.2002483	70.6375	7.029453	32.18855
785	6.12049	3.2002795	70.8828	7.029794	32.19148
786	6.11815	3.2001863	71.1461	7.030136	32.19253
787	6.11611	3.2001553	71.4129	7.030409	32.19398
788	6.11169	3.2002798	71.6641	7.030897	32.19945
789	6.10508	3.2004043	71.9125	7.031654	32.20699
790	6.09847	3.2004915	72.1697	7.032431	32.21411
791	6.09353	3.2004357	72.4273	7.033074	32.21805
792	6.08896	3.2004483	72.6937	7.033638	32.22240
793	6.08149	3.2006786	72.9481	7.034448	32.23194
794	6.07041	3.2007720	73.2022	7.035774	32.24339
795	6.06147	3.2007411	73.4598	7.036900	32.25142
796	6.05598	3.2008283	73.7141	7.037538	32.25749
797	6.05105	3.2006792	73.9625	7.038229	32.26039
798	6.04867	3.2007415	74.2229	7.038498	32.26323
799	6.04303	3.2007416	74.4864	7.039200	32.26847
800	6.03557	3.2007418	74.7466	7.040128	32.27545
801	6.02968	3.2007108	75.0134	7.040878	32.28058
802	6.02496	3.2007421	75.2676	7.041451	32.28530
803	6.02181	3.2007733	75.5281	7.041830	32.28852
804	6.01917	3.2007734	75.7734	7.042161	32.29092
805	6.01668	3.2008046	76.0277	7.042458	32.29352
806	6.01425	3.2008047	76.2729	7.042765	32.29572
807	6.01115	3.2008297	76.5274	7.043140	32.29882
808	6.00806	3.2008609	76.7786	7.043513	32.30200
809	6.00481	3.2008610	77.0361	7.043920	32.30497
810	6.00162	3.2008611	77.2904	7.044321	32.30790
811	5.99928	3.2008612	77.5480	7.044615	32.31000
812	5.99771	3.2008613	77.7990	7.044815	32.31138
813	5.99639	3.2008365	78.0384	7.044996	32.31224
814	5.99583	3.2007433	78.3139	7.045120	32.31160
815	5.99578	3.2006812	78.5956	7.045164	32.31081
816	5.99573	3.2007746	78.8590	7.045128	32.31178
817	5.99512	3.2008306	79.1134	7.045180	32.31286
818	5.99385	3.2008307	79.3678	7.045343	32.31395
819	5.99340	3.2007748	79.6310	7.045434	32.31363
820	5.99325	3.2008060	79.8888	7.045443	32.31400
821	5.99325	3.2008621	80.1400	7.045419	32.31450
822	5.99238	3.2008932	80.3913	7.045516	32.31555
823	5.99127	3.2008311	80.6609	7.045692	32.31579
824	5.99107	3.2007130	80.9151	7.045783	32.31454
825	5.99218	3.2007753	81.1785	7.045619	32.31404
826	5.99259	3.2007443	81.4298	7.045591	32.31319
827	5.99178	3.2008066	81.6813	7.045664	32.31454
828	5.99112	3.2006201	81.9388	7.045848	32.31295
829	5.99132	3.2007756	82.1899	7.045748	32.31438
830	5.99132	3.2006513	82.4414	7.045818	32.31287
831	5.98868	3.2008069	82.6986	7.046070	32.31700
832	5.98452	3.2008630	82.9592	7.046561	32.32146
833	5.98219	3.2008320	83.2105	7.046871	32.32322
834	5.98092	3.2007761	83.4677	7.047063	32.32368
835	5.97849	3.2007451	83.7345	7.047386	32.32553
836	5.97474	3.2007453	83.9887	7.047856	32.32898
837	5.96876	3.2007454	84.2402	7.048602	32.33457
838	5.96318	3.2008077	84.4975	7.049265	32.34047
839	5.95892	3.2007768	84.7458	7.049814	32.34407
840	5.95528	3.2008640	85.0062	7.050227	32.34840
841	5.95147	3.2010196	85.2667	7.050623	32.35365
842	5.94798	3.2011690	85.5299	7.050984	32.35853
843	5.94423	3.2016294	85.7876	7.051216	32.36715
844	5.93952	3.2019032	86.0356	7.051664	32.37460
845	5.93521	3.2018411	86.2841	7.052235	32.37790
846	5.93202	3.2019035	86.5414	7.052603	32.38153
847	5.92883	3.2021773	86.7958	7.052863	32.38752
848	5.92519	3.2023951	87.0380	7.053207	32.39333
849	5.92129	3.2027001	87.2957	7.053538	32.40036
850	5.91703	3.2029739	87.5470	7.053929	32.40738
851	5.91314	3.2030674	87.8012	7.054369	32.41203
852	5.91055	3.2030364	88.0494	7.054710	32.41404
853	5.90888	3.2029432	88.3371	7.054972	32.41445
854	5.90782	3.2030055	88.6126	7.055078	32.41604
855	5.90691	3.2031300	88.8789	7.055132	32.41817
856	5.90595	3.2032172	89.1427	7.055212	32.41995
857	5.90473	3.2033230	89.3999	7.055313	32.42217
858	5.90276	3.2035845	89.6575	7.055428	32.42687
859	5.90165	3.2037401	89.9057	7.055491	32.42956
860	5.90069	3.2038273	90.1572	7.055571	32.43134
861	5.89952	3.2038896	90.4143	7.055689	32.43302
862	5.89861	3.2038897	90.6747	7.055807	32.43377
863	5.89719	3.2036160	90.9504	7.056131	32.43193
864	5.89492	3.2034046	91.1926	7.056528	32.43162
865	5.89213	3.2035229	91.4135	7.056816	32.43551
866	5.88965	3.2061863	91.5315	7.055747	32.46770
867	5.88920	3.2068896	91.5439	7.055439	32.47603
868	5.89962	3.2069082	91.5229	7.054138	32.46624
869	5.91314	3.2073438	91.5168	7.052240	32.45816
870	5.92210	3.2078977	91.5260	7.050845	32.45577
871	5.92686	3.2084766	91.5294	7.049957	32.45769
872	5.92873	3.2086634	91.5293	7.049629	32.45799
873	5.93035	3.2090307	91.5234	7.049239	32.46055
874	5.93339	3.2090618	91.5296	7.048847	32.45798
875	5.93744	3.2086010	91.5298	7.048584	32.44893
876	5.94068	3.2085387	91.5361	7.048215	32.44513
877	5.94367	3.2087255	91.5330	7.047749	32.44436
878	5.94499	3.2087254	91.5300	7.047587	32.44309
879	5.94403	3.2086009	91.5211	7.047770	32.44263
880	5.94256	3.2086943	91.5241	7.047903	32.44508
881	5.94312	3.2088749	91.5215	7.047741	32.44657
882	5.94377	3.2089994	91.5153	7.047595	32.44734
883	5.94418	3.2090928	91.5094	7.047497	32.44800
884	5.94489	3.2092111	91.5125	7.047348	32.44864
885	5.94585	3.2092422	91.5096	7.047213	32.44807
886	5.94707	3.2086320	91.4676	7.047377	32.44009
887	5.95046	3.2086008	91.3465	7.046970	32.43655
888	5.94935	3.2085696	91.1921	7.047121	32.43734
889	5.94702	3.2079907	91.0170	7.047704	32.43317
890	5.94889	3.2078661	90.8382	7.047532	32.43007
891	5.94985	3.2082022	90.6597	7.047236	32.43300
892	5.94783	3.2081710	90.4784	7.047498	32.43468
893	5.94621	3.2079593	90.2819	7.047804	32.43396
894	5.94757	3.2081398	90.0971	7.047537	32.43476
895	5.94798	3.2081957	89.9218	7.047454	32.43508
896	5.94925	3.2082642	89.7402	7.047258	32.43472
897	5.94970	3.2083575	89.5557	7.047150	32.43542
898	5.94955	3.2082952	89.3589	7.047196	32.43497
899	5.95087	3.2083885	89.1654	7.046981	32.43484
900	5.95310	3.2084133	88.9566	7.046688	32.43309
901	5.95487	3.2083260	88.7572	7.046509	32.43051
902	5.95649	3.2084131	88.5423	7.046259	32.43004
903	5.95634	3.2083881	88.3212	7.046286	32.43001
904	5.95821	3.2082013	88.0825	7.046145	32.42624
905	5.96166	3.2087241	87.8586	7.045444	32.42890
906	5.96343	3.2089980	87.6527	7.045079	32.43037
907	5.96531	3.2088734	87.4441	7.044907	32.42728
908	5.97175	3.2083565	87.2322	7.044373	32.41544
909	5.98042	3.2085992	87.0234	7.043173	32.40996
910	5.98305	3.2089353	86.8148	7.042669	32.41130
911	5.98285	3.2086613	86.6094	7.042831	32.40853
912	5.98336	3.2085678	86.3883	7.042811	32.40710
913	5.98625	3.2088416	86.1824	7.042308	32.40750
914	5.98610	3.2089972	85.9738	7.042242	32.40949
915	5.98498	3.2090906	85.7709	7.042327	32.41170
916	5.98442	3.2089971	85.5595	7.042440	32.41129
917	5.98574	3.2090282	85.3477	7.042256	32.41048
918	5.99101	3.2092086	85.1295	7.041507	32.40756
919	5.99309	3.2092396	84.9240	7.041230	32.40602
920	5.99401	3.2092707	84.7213	7.041096	32.40559
921	5.99507	3.2091959	84.5187	7.040999	32.40384
922	5.99563	3.2089966	84.3038	7.041028	32.40118
923	5.99817	3.2090588	84.0887	7.040678	32.39955
924	6.00106	3.2091209	83.8771	7.040284	32.39759
925	6.00030	3.2091458	83.6652	7.040361	32.39869
926	5.99822	3.2089963	83.4507	7.040689	32.39912
927	5.99730	3.2089029	83.2448	7.040846	32.39904
928	5.99954	3.2090273	83.0359	7.040501	32.39840
929	5.99989	3.2089961	82.8274	7.040469	32.39782
930	6.00004	3.2090583	82.6065	7.040413	32.39847
931	5.99999	3.2091205	82.4068	7.040383	32.39932
932	5.99877	3.2089337	82.1981	7.040625	32.39849
933	5.99908	3.2089336	81.9925	7.040583	32.39830
934	6.00162	3.2089646	81.7835	7.040249	32.39632
935	6.00273	3.2088712	81.5719	7.040154	32.39432
936	6.00451	3.2089956	81.3660	7.039866	32.39411
937	6.00405	3.2090889	81.1574	7.039870	32.39569
938	6.00319	3.2087216	80.9423	7.040161	32.39251
939	6.00618	3.2089643	80.7246	7.039662	32.39247
940	6.00720	3.2091759	80.5190	7.039423	32.39397
941	6.00649	3.2093003	80.3132	7.039442	32.39614
942	6.00674	3.2093937	80.1075	7.039358	32.39704
943	6.00760	3.2089951	79.8924	7.039452	32.39186
944	6.01095	3.2089328	79.6748	7.039066	32.38807
945	6.01501	3.2089949	79.4630	7.038528	32.38499
946	6.01592	3.2092688	79.2542	7.038270	32.38728
947	6.01623	3.2092998	79.0364	7.038211	32.38744
948	6.01511	3.2091939	78.8277	7.038399	32.38743
949	6.01658	3.2089324	78.6129	7.038347	32.38320
950	6.01968	3.2090257	78.3919	7.037912	32.38140
951	6.02206	3.2091439	78.1650	7.037552	32.38055
952	6.02176	3.2098225	77.9411	7.037235	32.38853
953	6.02064	3.2105572	77.7294	7.036990	32.39792
954	6.02029	3.2107066	77.5116	7.036952	32.40003
955	6.02029	3.2104014	77.2999	7.037105	32.39672
956	6.02064	3.2106130	77.0819	7.036947	32.39886
957	6.02156	3.2112606	76.8822	7.036497	32.40532
958	6.02191	3.2112916	76.6673	7.036432	32.40543
959	6.02247	3.2114722	76.4525	7.036266	32.40702
960	6.02328	3.2112604	76.2379	7.036270	32.40398
961	6.02389	3.2111669	76.0261	7.036238	32.40246
962	6.02435	3.2116152	75.8141	7.035946	32.40714
963	6.02486	3.2114096	75.6054	7.035985	32.40445
964	6.02567	3.2115341	75.4026	7.035816	32.40517
965	6.02648	3.2112911	75.1757	7.035836	32.40179
966	6.02749	3.2109548	74.9492	7.035878	32.39717
967	6.02897	3.2117767	74.7398	7.035270	32.40505
968	6.03018	3.2118701	74.5312	7.035067	32.40503
969	6.03150	3.2116271	74.3198	7.035024	32.40116
970	6.03374	3.2114091	74.0899	7.034856	32.39670
971	6.03572	3.2111661	73.8777	7.034732	32.39219
972	6.03724	3.2116891	73.6600	7.034270	32.39669
973	6.03810	3.2118385	73.4602	7.034083	32.39763
974	6.03861	3.2116890	73.2453	7.034092	32.39558
975	6.03922	3.2119941	73.0366	7.033856	32.39851
976	6.03998	3.2116888	72.8247	7.033914	32.39447
977	6.04064	3.2120375	72.6039	7.033648	32.39784
978	6.04171	3.2123613	72.4011	7.033346	32.40054
979	6.04090	3.2123301	72.1953	7.033458	32.40107
980	6.04024	3.2122989	71.9805	7.033550	32.40146
981	6.03892	3.2118380	71.7688	7.033945	32.39767
982	6.03790	3.2116885	71.5539	7.034142	32.39708
983	6.03907	3.2104305	71.3392	7.034640	32.38201
984	6.04044	3.2088676	71.1212	7.035269	32.36334
985	6.04608	3.2072489	70.9035	7.035400	32.33999
986	6.05481	3.2052260	70.6946	7.035357	32.30917
987	6.06279	3.2040684	70.4707	7.034962	32.28876
988	6.06944	3.2024755	70.2469	7.034953	32.26475
989	6.07681	3.2014676	70.0410	7.034556	32.24660
990	6.08321	3.2014115	69.8292	7.033790	32.23999
991	6.08820	3.2014114	69.6116	7.033170	32.23536
992	6.09206	3.2008017	69.3906	7.033001	32.22500
993	6.09465	3.2004907	69.1637	7.032835	32.21918
994	6.09724	3.1997318	68.9549	7.032899	32.20836
995	6.09969	3.1995763	68.7370	7.032673	32.20441
996	6.10167	3.1999120	68.5343	7.032252	32.20637
997	6.10365	3.1996383	68.3102	7.032142	32.20154
998	6.10558	3.1994578	68.0774	7.031991	32.19781
999	6.10752	3.1992090	67.8444	7.031875	32.19332
1000	6.10960	3.1986741	67.6325	7.031887	32.18548
1001	6.11189	3.1989352	67.4237	7.031466	32.18632
1002	6.11443	3.1989351	67.2089	7.031147	32.18401
1003	6.11657	3.1985992	66.9729	7.031050	32.17836
1004	6.11855	3.1982323	66.7610	7.030988	32.17249
1005	6.12110	3.1981451	66.5523	7.030714	32.16921
1006	6.12334	3.1984497	66.3342	7.030278	32.17059
1007	6.12537	3.1981450	66.1164	7.030178	32.16537
1008	6.12766	3.1981138	65.8958	7.029906	32.16296
1009	6.13010	3.1980204	65.6836	7.029648	32.15971
1010	6.13260	3.1979022	65.4719	7.029396	32.15613
1011	6.13509	3.1980824	65.2632	7.028991	32.15588
1012	6.13738	3.1978709	65.0453	7.028812	32.15146
1013	6.13987	3.1977776	64.8334	7.028548	32.14816
1014	6.14283	3.1978396	64.6066	7.028147	32.14617
1015	6.14629	3.1977152	64.4007	7.027779	32.14161
1016	6.14970	3.1976840	64.1798	7.027369	32.13814
1017	6.15245	3.1978083	63.9591	7.026962	32.13703
1018	6.15514	3.1976838	63.7320	7.026687	32.13320
1019	6.15759	3.1976526	63.5172	7.026397	32.13064
1020	6.15998	3.1976090	63.3053	7.026120	32.12800
1021	6.16243	3.1975654	63.0935	7.025836	32.12530
1022	6.16446	3.1977145	62.8878	7.025504	32.12513
1023	6.16635	3.1975901	62.6637	7.025330	32.12208
1024	6.16798	3.1976211	62.4400	7.025108	32.12099
1025	6.16935	3.1975899	62.2281	7.024950	32.11944
1026	6.17068	3.1974717	62.0193	7.024842	32.11698
1027	6.17180	3.1976209	61.8014	7.024623	32.11768
1028	6.17261	3.1974716	61.5776	7.024594	32.11536
1029	6.17322	3.1975337	61.3535	7.024482	32.11558
1030	6.17404	3.1974528	61.1478	7.024418	32.11401
1031	6.17541	3.1973470	60.9299	7.024298	32.11164
1032	6.17679	3.1974091	60.7149	7.024092	32.11113
1033	6.17791	3.1972847	60.4941	7.024012	32.10879
1034	6.17877	3.1972597	60.2642	7.023913	32.10781
1035	6.17990	3.1972286	60.0524	7.023786	32.10651
1036	6.18117	3.1972285	59.8373	7.023625	32.10540
1037	6.18254	3.1972595	59.6164	7.023434	32.10456
1038	6.18407	3.1972283	59.3955	7.023257	32.10287
1039	6.18575	3.1972593	59.1716	7.023029	32.10174
1040	6.18703	3.1973525	58.9598	7.022820	32.10167
1041	6.18896	3.1972591	58.7481	7.022624	32.09891
1042	6.19070	3.1973461	58.5273	7.022361	32.09834
1043	6.19258	3.1973771	58.3153	7.022109	32.09701
1044	6.19447	3.1974392	58.0852	7.021839	32.09603
1045	6.19625	3.1975324	57.8584	7.021567	32.09549
1046	6.19834	3.1975012	57.6435	7.021321	32.09327
1047	6.20063	3.1975633	57.4225	7.021002	32.09190
1048	6.20288	3.1975632	57.2077	7.020721	32.08989
1049	6.20476	3.1975133	56.9807	7.020509	32.08766
1050	6.20665	3.1976190	56.7659	7.020218	32.08716
1051	6.20843	3.1975878	56.5418	7.020009	32.08524
1052	6.20996	3.1975628	56.3209	7.019829	32.08362
1053	6.21139	3.1975627	56.0999	7.019648	32.08238
1054	6.21272	3.1974072	55.8701	7.019559	32.07951
1055	6.21404	3.1973761	55.6583	7.019407	32.07802
1056	6.21506	3.1971335	55.4494	7.019400	32.07446
1057	6.21649	3.1969531	55.2196	7.019311	32.07122
1058	6.21802	3.1967976	54.9986	7.019197	32.06816
1059	6.22042	3.1965178	54.7683	7.019039	32.06290
1060	6.22347	3.1963374	54.5568	7.018749	32.05811
1061	6.22822	3.1959457	54.3416	7.018360	32.04939
1062	6.23485	3.1957901	54.1177	7.017617	32.04152
1063	6.24219	3.1957900	53.9001	7.016708	32.03471
1064	6.25000	3.1957028	53.6699	7.015786	32.02650
1065	6.25842	3.1958208	53.4520	7.014684	32.01998
1066	6.26603	3.1957895	53.2371	7.013759	32.01258
1067	6.27261	3.1957272	53.0193	7.012976	32.00580
1068	6.27884	3.1957395	52.7924	7.012198	32.00019
1069	6.28497	3.1955778	52.5745	7.011521	31.99274
1070	6.29013	3.1955777	52.3443	7.010882	31.98800
1071	6.29483	3.1954843	52.1263	7.010346	31.98265
1072	6.29978	3.1953661	51.9145	7.009792	31.97679
1073	6.30392	3.1954219	51.6938	7.009250	31.97362
1074	6.30786	3.1953037	51.4728	7.008821	31.96872
1075	6.31143	3.1953658	51.2579	7.008345	31.96616
1076	6.31583	3.1953967	51.0461	7.007784	31.96247
1077	6.32063	3.1952723	50.8252	7.007252	31.95669
1078	6.32523	3.1954835	50.6073	7.006575	31.95482
1079	6.32948	3.1954834	50.3804	7.006048	31.95095
1080	6.33311	3.1955765	50.1532	7.005550	31.94868
1081	6.33756	3.1958499	49.9323	7.004860	31.94764
1082	6.34277	3.1957876	49.7236	7.004246	31.94216
1083	6.34814	3.1958808	49.5026	7.003535	31.93826
1084	6.35341	3.1959117	49.2785	7.002867	31.93377
1085	6.35873	3.1958805	49.0486	7.002224	31.92855
1086	6.36487	3.1960296	48.8278	7.001390	31.92455
1087	6.37178	3.1959300	48.6129	7.000587	31.91708
1088	6.37930	3.1956066	48.3917	6.999822	31.90657
1089	6.38836	3.1951154	48.1798	6.998953	31.89276
1090	6.39789	3.1944502	47.9499	6.998114	31.87661
1091	6.40613	3.1939280	47.7291	6.997361	31.86324
1092	6.41320	3.1934431	47.5173	6.996733	31.85138
1093	6.41966	3.1932006	47.2992	6.996058	31.84278
1094	6.42581	3.1927407	47.0815	6.995530	31.83206
1095	6.43119	3.1925293	46.8573	6.994971	31.82482
1096	6.43544	3.1925540	46.6213	6.994432	31.82123
1097	6.43898	3.1921625	46.4216	6.994190	31.81371
1098	6.44139	3.1917709	46.2007	6.994087	31.80725
1099	6.44287	3.1915223	45.9888	6.994025	31.80322
1100	6.44405	3.1911930	45.7647	6.994041	31.79859
1101	6.44395	3.1908264	45.5468	6.994233	31.79475
1102	6.44354	3.1907642	45.3381	6.994310	31.79454
1103	6.44298	3.1921309	45.1112	6.993687	31.81026
1104	6.44041	3.1929822	44.8930	6.993569	31.82214
1105	6.43231	3.1946104	44.6721	6.993738	31.84778
1106	6.41095	3.1951451	44.4454	6.996085	31.87375
1107	6.37900	3.1953940	44.2423	6.999877	31.90648
1108	6.35382	3.1953942	44.0245	7.002963	31.93017
1109	6.33699	3.1948100	43.8037	7.005321	31.93959
1110	6.32150	3.1947231	43.5827	7.007265	31.95326
1111	6.31430	3.1947231	43.3586	7.008146	31.96013
1112	6.31276	3.1943564	43.1498	7.008516	31.95761
1113	6.31312	3.1942009	42.9348	7.008546	31.95565
1114	6.31455	3.1942568	42.7170	7.008337	31.95503
1115	6.31573	3.1942008	42.4989	7.008216	31.95341
1116	6.31838	3.1942628	42.2690	7.007852	31.95172
1117	6.32114	3.1943559	42.0542	7.007461	31.95026
1118	6.32048	3.1941756	41.8361	7.007629	31.94899
1119	6.31741	3.1942937	41.6244	7.007942	31.95328
1120	6.31373	3.1943869	41.3974	7.008342	31.95787
1121	6.31113	3.1942936	41.1791	7.008705	31.95939
1122	6.30765	3.1943247	40.9676	7.009112	31.96310
1123	6.30285	3.1942252	40.7528	7.009749	31.96661
1124	6.29713	3.1942314	40.5378	7.010445	31.97216
1125	6.29130	3.1941755	40.3107	7.011185	31.97712
1126	6.28558	3.1940823	40.1079	7.011931	31.98156
1127	6.27879	3.1940823	39.8899	7.012762	31.98805
1128	6.27220	3.1939890	39.6722	7.013615	31.99331
1129	6.26603	3.1939890	39.4511	7.014371	31.99923
1130	6.25954	3.1941133	39.2362	7.015101	32.00681
1131	6.25317	3.1941133	39.0213	7.015882	32.01291
1132	6.24771	3.1940636	38.8032	7.016575	32.01761
1133	6.24337	3.1941755	38.5887	7.017047	32.02304
1134	6.23944	3.1942003	38.3826	7.017514	32.02711
1135	6.23582	3.1943556	38.1708	7.017876	32.03235
1136	6.23250	3.1943556	37.9557	7.018280	32.03558
1137	6.22980	3.1943245	37.7440	7.018624	32.03788
1138	6.22664	3.1943245	37.5048	7.019008	32.04098
1139	6.22485	3.1941442	37.2778	7.019315	32.04076
1140	6.22358	3.1940820	37.0720	7.019499	32.04137
1141	6.22398	3.1942248	36.8663	7.019372	32.04268
1142	6.22822	3.1941750	36.6484	7.018871	32.03824
1143	6.23235	3.1941998	36.4360	7.018344	32.03472
1144	6.23674	3.1940816	36.2214	7.017860	32.02938
1145	6.24097	3.1935905	36.0158	7.017583	32.02004
1146	6.24566	3.1933791	35.8038	7.017108	32.01337
1147	6.25281	3.1929813	35.5950	7.016426	32.00233
1148	6.26108	3.1931986	35.3829	7.015293	31.99707
1149	6.26843	3.1930120	35.1772	7.014478	31.98818
1150	6.27511	3.1921358	34.9623	7.014095	31.97228
1151	6.28543	3.1920983	34.7685	7.012839	31.96226
1152	6.30014	3.1919801	34.5477	7.011084	31.94724
1153	6.31169	3.1917935	34.3326	7.009753	31.93444
1154	6.32140	3.1917374	34.1389	7.008583	31.92481
1155	6.33029	3.1912464	33.9330	7.007733	31.91113
1156	6.34073	3.1912773	33.7183	7.006429	31.90180
1157	6.35249	3.1910348	33.5215	7.005101	31.88820
1158	6.36461	3.1907240	33.2975	7.003763	31.87352
1159	6.37853	3.1907922	33.0976	7.002013	31.86135
1160	6.39256	3.1901210	32.8919	7.000624	31.84092
1161	6.40168	3.1903072	32.6860	6.999406	31.83456
1162	6.41269	3.1903630	32.4801	6.998021	31.82500
1163	6.42350	3.1900025	32.2682	6.996871	31.81103
1164	6.43108	3.1902446	32.0684	6.995813	31.80673
1165	6.43970	3.1896668	31.8687	6.995043	31.79241
1166	6.44831	3.1892070	31.6567	6.994212	31.77942
1167	6.45615	3.1890826	31.4449	6.993307	31.77084
1168	6.46261	3.1887223	31.2362	6.992691	31.76095
1169	6.47046	3.1891817	31.0303	6.991493	31.75881
1170	6.47749	3.1892686	30.8183	6.990583	31.75333
1171	6.48467	3.1889951	30.6034	6.989834	31.74374
1172	6.49304	3.1890260	30.3978	6.988788	31.73640
1173	6.50202	3.1885725	30.1795	6.987910	31.72316
1174	6.51003	3.1882991	29.9768	6.987060	31.71280
1175	6.51722	3.1882803	29.7830	6.986184	31.70601
1176	6.52097	3.1876592	29.5710	6.986032	31.69580
1177	6.52857	3.1880254	29.3624	6.984912	31.69287
1178	6.54383	3.1875346	29.1474	6.983283	31.67342
1179	6.55725	3.1877207	28.9415	6.981542	31.66314
1180	6.56964	3.1879627	28.7388	6.979899	31.65442
1181	6.57936	3.1872919	28.5146	6.979040	31.63816
1182	6.58784	3.1876581	28.3088	6.977813	31.63443
1183	6.60091	3.1871922	28.0998	6.976442	31.61732
1184	6.61471	3.1872603	27.8881	6.974716	31.60542
1185	6.62902	3.1877755	27.6761	6.972704	31.59796
1186	6.64097	3.1869556	27.4551	6.971646	31.57804
1187	6.65488	3.1869243	27.2433	6.969957	31.56497
1188	6.66704	3.1868062	27.0316	6.968525	31.55256
1189	6.65179	3.1850119	26.8166	6.971277	31.54705
1190	6.64179	3.1853969	26.6106	6.972303	31.56058
1191	6.65931	3.1848007	26.3895	6.970453	31.53800
1192	6.68312	3.1848314	26.1838	6.967522	31.51651
1193	6.70035	3.1851974	25.9749	6.965231	31.50477
1194	6.71232	3.1847378	25.7660	6.963993	31.48883
1195	6.72357	3.1850729	25.5449	6.962448	31.48227
1196	6.73389	3.1852279	25.3363	6.961106	31.47458
1197	6.74024	3.1847684	25.1272	6.960554	31.46383
1198	6.74571	3.1845572	24.9214	6.959986	31.45659
1199	6.75480	3.1841908	24.7095	6.959054	31.44435
1200	6.76359	3.1841906	24.5067	6.957978	31.43639
1201	6.77273	3.1845878	24.2886	6.956661	31.43245
1202	6.78136	3.1839482	24.0739	6.955920	31.41766
1203	6.79594	3.1843453	23.8649	6.953942	31.40874
1204	6.81352	3.1847672	23.6527	6.951586	31.39736
1205	6.82413	3.1841711	23.4470	6.950583	31.38125
1206	6.82987	3.1839785	23.2292	6.949973	31.37401
1207	6.83934	3.1838915	23.0171	6.948858	31.36450
1208	6.84974	3.1841023	22.8052	6.947482	31.35740
1209	6.85735	3.1842201	22.5934	6.946493	31.35184
1210	6.86414	3.1834317	22.3753	6.946050	31.33716
1211	6.87356	3.1840398	22.1545	6.944599	31.33529
1212	6.88242	3.1834934	21.9484	6.943785	31.32135
1213	6.88600	3.1834064	21.7366	6.943388	31.31725
1214	6.89201	3.1832511	21.5278	6.942729	31.31018
1215	6.89413	3.1827669	21.3096	6.942703	31.30307
1216	6.89771	3.1838903	21.0949	6.941712	31.31214
1217	6.90429	3.1830708	20.8797	6.941309	31.29733
1218	6.91082	3.1839459	20.6680	6.940080	31.30100
1219	6.92021	3.1834305	20.4622	6.939187	31.28695
1220	6.92680	3.1825739	20.2411	6.938802	31.27174
1221	6.93375	3.1833434	20.0321	6.937575	31.27388
1222	6.94521	3.1837652	19.8141	6.935970	31.26815
1223	6.95196	3.1829768	19.5930	6.935532	31.25355
1224	6.95533	3.1833988	19.3842	6.934911	31.25517
1225	6.95902	3.1838270	19.1723	6.934249	31.25657
1226	6.95689	3.1825546	18.9604	6.935126	31.24477
1227	6.95814	3.1825731	18.7364	6.934961	31.24395
1228	6.96592	3.1819151	18.5121	6.934332	31.22983
1229	6.97646	3.1827341	18.3005	6.932646	31.22926
1230	6.98571	3.1823057	18.0855	6.931728	31.21633
1231	6.98882	3.1822808	17.8734	6.931357	31.21333
1232	6.99584	3.1824607	17.6676	6.930413	31.20902
1233	7.00607	3.1829135	17.4284	6.928944	31.20476
1234	7.01174	3.1823114	17.2013	6.928546	31.19320
1235	7.01236	3.1821872	16.9802	6.928526	31.19139
1236	6.99516	3.1810952	16.7836	6.931144	31.19521
1237	6.96488	3.1817904	16.5655	6.934478	31.23032
1238	6.96561	3.1803694	16.3414	6.935081	31.21432
1239	6.97750	3.1798232	16.1325	6.933898	31.19771
1240	6.99594	3.1812748	15.9207	6.930944	31.19685
1241	7.01059	3.1809023	15.7117	6.929342	31.17963
1242	7.01163	3.1808836	15.4908	6.929220	31.17859
1243	7.01574	3.1801576	15.2758	6.929071	31.16710
1244	7.02712	3.1805483	15.0698	6.927494	31.16113
1245	7.03893	3.1812431	14.8641	6.925718	31.15808
1246	7.04491	3.1810630	14.6459	6.925076	31.15082
1247	7.05219	3.1819130	14.4280	6.923774	31.15355
1248	7.05968	3.1817329	14.2070	6.922948	31.14493
1249	7.06640	3.1818506	13.9890	6.922072	31.14024
1250	7.07415	3.1820615	13.7709	6.921025	31.13562
1251	7.08467	3.1819434	13.5591	6.919803	31.12494
1252	7.09336	3.1813661	13.3319	6.919025	31.11095
1253	7.10003	3.1812171	13.1260	6.918285	31.10341
1254	7.11186	3.1818188	12.9109	6.916556	31.09936
1255	7.12389	3.1826999	12.6960	6.914667	31.09814
1256	7.13458	3.1826004	12.4781	6.913417	31.08753
1257	7.14516	3.1823023	12.2600	6.912276	31.07488
1258	7.15752	3.1822463	12.0511	6.910803	31.06324
1259	7.17192	3.1818179	11.8424	6.909264	31.04576
1260	7.18580	3.1810296	11.6273	6.907962	31.02487
1261	7.20021	3.1813644	11.4215	6.906053	31.01564
1262	7.20882	3.1812712	11.2033	6.905052	31.00700
1263	7.22063	3.1813827	10.9824	6.903567	30.99771
1264	7.23787	3.1818168	10.7706	6.901270	30.98702
1265	7.25371	3.1819407	10.5553	6.899293	30.97426
1266	7.26699	3.1814565	10.3405	6.897918	30.95725
1267	7.27714	3.1823313	10.1254	6.896268	30.95769
1268	7.28703	3.1827594	9.9013	6.894865	30.95355
1269	7.29608	3.1824551	9.6865	6.893915	30.94227
1270	7.30796	3.1824053	9.4683	6.892501	30.93121
1271	7.32309	3.1821506	9.2655	6.890795	30.91504
1272	7.33876	3.1809714	9.0445	6.889468	30.88849
1273	7.34604	3.1815111	8.8264	6.888327	30.88789
1274	7.35128	3.1825473	8.6207	6.887195	30.89444
1275	7.35264	3.1816660	8.4147	6.887449	30.88385
1276	7.36291	3.1823919	8.1997	6.885859	30.88258
1277	7.37513	3.1823359	7.9817	6.884410	30.87119
1278	7.38903	3.1818144	7.7728	6.882982	30.85331
1279	7.40262	3.1823603	7.5606	6.881082	30.84717
1280	7.41332	3.1816340	7.3518	6.880136	30.82995
1281	7.42046	3.1824841	7.1306	6.878867	30.83281
1282	7.43637	3.1823908	6.9008	6.876994	30.81777
1283	7.45081	3.1829367	6.6797	6.874993	30.81089
1284	7.45943	3.1815402	6.4647	6.874618	30.78838
1285	7.45407	3.1817574	6.2556	6.875155	30.79555
1286	7.46490	3.1821171	6.0375	6.873678	30.78990
1287	7.47646	3.1818129	5.8316	6.872429	30.77647
1288	7.48776	3.1826319	5.6198	6.870677	30.77531
1289	7.49944	3.1822966	5.4139	6.869431	30.76147
1290	7.51196	3.1828735	5.1897	6.867649	30.75665
1291	7.51833	3.1832644	4.9718	6.866695	30.75528
1292	7.52411	3.1839657	4.7597	6.865663	30.75775
1293	7.53085	3.1827242	4.5476	6.865440	30.73861
1294	7.52954	3.1817808	4.3420	6.866041	30.72978
1295	7.53248	3.1816939	4.1148	6.865725	30.72635
1296	7.53427	3.1823578	3.9057	6.865191	30.73195
1297	7.53764	3.1825687	3.6970	6.864682	30.73132
1298	7.54538	3.1827485	3.4789	6.863664	30.72649
1299	7.55402	3.1827856	3.2578	6.862606	30.71935
1300	7.56002	3.1828724	3.0366	6.861841	30.71507
1301	7.57272	3.1833004	2.8124	6.860112	30.70852
1302	7.59043	3.1830830	2.6067	6.858089	30.69065
1303	7.60498	3.1823876	2.4008	6.856670	30.67048
1304	7.60741	3.1818725	2.1920	6.856619	30.66294
1305	7.60820	3.1818227	1.9860	6.856543	30.66181
1306	7.61147	3.1825984	1.7619	6.855781	30.66730
1307	7.62196	3.1832064	1.5467	6.854232	30.66462
1308	7.63648	3.1833862	1.3439	6.852407	30.65384
1309	7.64814	3.1828150	1.1348	6.851276	30.63757
1310	7.65606	3.1829328	0.9139	6.850269	30.63195
1311	7.66298	3.1834478	0.7111	6.849195	30.63144
1312	7.66968	3.1830256	0.5020	6.848587	30.62114
1313	7.67708	3.1829386	0.3081	6.847740	30.61379
1314	7.67845	3.1852414	0.1234	6.846488	30.63718
1315	7.68691	3.1878181	0.0357	6.844263	30.65721
1316	7.70879	3.1890662	0.0387	6.841064	30.65122
1317	7.78129	3.1899785	0.0478	6.831993	30.59722
1318	7.89543	3.1963343	0.0389	6.815457	30.56459
1319	8.03931	3.2037772	0.0481	6.794976	30.51760
1320	8.21657	3.2083062	0.0451	6.772014	30.41127
1321	8.38581	1.2017288	0.0482	7.673542	10.36046
1322	8.44327	0.7512683	0.0422	7.868771	6.23660
1323	8.43827	0.6037940	0.0421	7.935784	4.93516
1324	8.42319	0.8087747	0.0423	7.846407	6.75451
1325	8.40092	1.0737141	0.0483	7.729689	9.16994
1326	8.37882	0.9599437	0.0483	7.785523	8.13203
1327	8.36102	0.9099368	0.0392	7.811462	7.68070
1328	8.35135	0.8202876	0.0454	7.853999	6.87186
1329	8.34281	0.7546895	0.0425	7.885301	6.28494
1330	8.33266	0.5885886	0.0365	7.962024	4.81669
1331	8.31988	0.4783035	0.0425	8.013581	3.86064
1332	8.30496	0.4034330	0.0426	8.049471	3.22166
1333	8.28828	0.3562693	0.0426	8.073332	2.82409
1334	8.27208	0.4624734	0.0366	8.029596	3.72959
1335	8.25814	0.3900420	0.0426	8.064265	3.11214
1336	8.24437	0.4657973	0.0396	8.033343	3.76113
1337	8.23082	0.4614119	0.0429	8.037852	3.72482
1338	8.21812	0.4299033	0.0398	8.054256	3.45565
1339	8.20715	0.4006384	0.0429	8.069306	3.20679
1340	8.19741	0.3474397	0.0429	8.094610	2.75689
1341	8.18853	0.3243316	0.0429	8.106445	2.56331
1342	8.18029	0.3086753	0.0430	8.114876	2.43283
1343	8.17285	0.2963076	0.0429	8.121707	2.33011
1344	8.16547	0.3412339	0.0371	8.103476	2.70708
1345	8.15879	0.3254604	0.0492	8.111686	2.57494
1346	8.15141	0.3161899	0.0461	8.117171	2.49772
1347	8.14446	0.3021503	0.0433	8.124655	2.38075
1348	8.13816	0.3111136	0.0434	8.121956	2.45614
1349	8.13153	0.2813915	0.0463	8.136218	2.20862
1350	8.12490	0.2859533	0.0492	8.135517	2.24699
1351	8.11882	0.3062919	0.0433	8.127812	2.41712
1352	8.11262	0.3096785	0.0432	8.127528	2.44590
1353	8.10680	0.3120052	0.0373	8.127635	2.46579
1354	8.10114	0.3080794	0.0435	8.130454	2.43330
1355	8.09559	0.3042536	0.0404	8.133208	2.40165
1356	8.09025	0.3145905	0.0404	8.129707	2.48864
1357	8.08539	0.2743679	0.0405	8.148255	2.15311
1358	8.08006	0.2914774	0.0436	8.141820	2.29592
1359	8.07515	0.2642086	0.0435	8.154679	2.06942
1360	8.06987	0.2739767	0.0407	8.151452	2.15081
1361	8.06480	0.3204269	0.0436	8.132072	2.53947
1362	8.05963	0.4099940	0.0439	8.093330	3.30033
1363	8.05989	0.4522437	0.0376	8.074355	3.66371
1364	8.06805	0.4048335	0.0437	8.094019	3.25536
1365	8.07099	0.3653166	0.0436	8.111035	2.91827
1366	8.07195	0.3516464	0.0470	8.116906	2.80231
1367	8.07077	0.3285424	0.0498	8.127339	2.60732
1368	8.07019	0.3141267	0.0501	8.133800	2.48616
1369	8.06912	0.3100118	0.0380	8.135816	2.45171
1370	8.06795	0.3006711	0.0409	8.140145	2.37355
1371	8.06597	0.2819783	0.0440	8.148716	2.21762
1372	8.06139	0.2718694	0.0410	8.154025	2.13381
1373	8.05547	0.3011256	0.0410	8.142371	2.37819
1374	8.05008	0.3069402	0.0470	8.140863	2.42727
1375	8.04533	0.3014229	0.0442	8.144210	2.38136
1376	8.04150	0.2942804	0.0414	8.148094	2.32185
1377	8.03803	0.2903592	0.0472	8.150489	2.28931
1378	8.03537	0.2872611	0.0474	8.152367	2.26361
1379	8.03302	0.2803018	0.0472	8.155873	2.20572
1380	8.03084	0.2712088	0.0413	8.160278	2.13017
1381	8.02849	0.2625984	0.0474	8.164497	2.05880
1382	8.02631	0.2625778	0.0444	8.164934	2.05875
1383	8.02460	0.2908399	0.0473	8.152895	2.29420
1384	8.02252	0.3121739	0.0474	8.143913	2.47311
1385	8.02060	0.3200677	0.0383	8.140803	2.53963
1386	8.01863	0.3200854	0.0441	8.141178	2.53993
1387	8.01661	0.3029832	0.0444	8.149113	2.39639
1388	8.01453	0.2863429	0.0445	8.156833	2.25728
1389	8.01251	0.2718798	0.0385	8.163567	2.13686
1390	8.01048	0.2600766	0.0445	8.169123	2.03893
1391	8.00825	0.2504525	0.0416	8.173759	1.95933
1392	8.00601	0.2426247	0.0448	8.177606	1.89477
1393	8.00377	0.2354685	0.0448	8.181156	1.83588
1394	8.00100	0.2430968	0.0384	8.178383	1.89894
1395	7.99882	0.2806385	0.0417	8.162404	2.21067
1396	7.99648	0.2913521	0.0447	8.158155	2.30032
1397	7.99392	0.3040752	0.0478	8.153050	2.40709
1398	7.99200	0.2979384	0.0448	8.156128	2.35576
1399	7.99014	0.2816728	0.0417	8.163646	2.21985
1400	7.98822	0.2668380	0.0449	8.170525	2.09638
1401	7.98636	0.2547480	0.0448	8.176177	1.99613
1402	7.98466	0.2442876	0.0418	8.181075	1.90966
1403	7.98295	0.2350900	0.0419	8.185413	1.83384
1404	7.98120	0.2265402	0.0388	8.189473	1.76355
1405	7.97923	0.2191676	0.0450	8.193057	1.70310
1406	7.97774	0.2291521	0.0479	8.189020	1.78521
1407	7.97614	0.2675079	0.0450	8.172599	2.10267
1408	7.97460	0.2795178	0.0421	8.167631	2.20284
1409	7.97300	0.2893563	0.0450	8.163616	2.28515
1410	7.97151	0.2901433	0.0479	8.163561	2.29183
1411	7.97023	0.2742780	0.0419	8.170786	2.15941
1412	7.96949	0.2608033	0.0421	8.176839	2.04734
1413	7.96816	0.2493206	0.0482	8.182121	1.95219
1414	7.96715	0.2390937	0.0390	8.186780	1.86770
1415	7.96592	0.2300404	0.0419	8.190961	1.79312
1416	7.96507	0.2218806	0.0422	8.194672	1.72606
1417	7.96438	0.2147549	0.0512	8.197897	1.66763
1418	7.96353	0.2085199	0.0482	8.200764	1.61662
1419	7.96294	0.2240056	0.0391	8.194170	1.74362
1420	7.96214	0.2592090	0.0423	8.178978	2.03452
1421	7.96167	0.2693076	0.0453	8.174645	2.11852
1422	7.96103	0.2782728	0.0482	8.170833	2.19329
1423	7.96065	0.2843161	0.0515	8.168248	2.24380
1424	7.96007	0.2707421	0.0422	8.174329	2.13056
1425	7.95975	0.2582797	0.0392	8.179854	2.02694
1426	7.96039	0.2467601	0.0423	8.184765	1.93143
1427	7.96060	0.2366525	0.0454	8.189131	1.84789
1428	7.96092	0.2281417	0.0423	8.192771	1.77774
1429	7.96092	0.2204220	0.0456	8.196123	1.71429
1430	7.96103	0.2132226	0.0485	8.199223	1.65524
1431	7.96076	0.2067620	0.0483	8.202070	1.60238
1432	7.96092	0.2179341	0.0425	8.197202	1.69387
1433	7.96124	0.2505520	0.0425	8.182942	1.96277
1434	7.96151	0.2665343	0.0422	8.175893	2.09545
1435	7.96204	0.2723711	0.0483	8.173228	2.14401
1436	7.96273	0.2824958	0.0455	8.168643	2.22845
1437	7.96353	0.2729039	0.0486	8.172702	2.14836
1438	7.96470	0.2592503	0.0393	8.178458	2.03472
1439	7.96571	0.2473049	0.0485	8.183482	1.93564
1440	7.96651	0.2370791	0.0455	8.187783	1.85110
1441	7.96773	0.2280975	0.0456	8.191449	1.77704
1442	7.96890	0.2200253	0.0456	8.194721	1.71064
1443	7.96970	0.2127222	0.0426	8.197727	1.65073
1444	7.97076	0.2060167	0.0486	8.200416	1.59583
1445	7.97193	0.1997628	0.0456	8.202883	1.54473
1446	7.97295	0.1943299	0.0487	8.205023	1.50043
1447	7.97406	0.1890193	0.0488	8.207086	1.45721
1448	7.97502	0.1865154	0.0424	8.207972	1.43684
1449	7.97609	0.2101034	0.0458	8.197599	1.62900
1450	7.97726	0.2430865	0.0456	8.183052	1.90013
1451	7.97822	0.2517463	0.0519	8.179086	1.97172
1452	7.97939	0.2579769	0.0488	8.176134	2.02330
1453	7.98018	0.2663686	0.0456	8.172305	2.09296
1454	7.98167	0.2566973	0.0427	8.176245	2.01256
1455	7.98258	0.2441234	0.0456	8.181554	1.90841
1456	7.98343	0.2330410	0.0426	8.186210	1.81693
1457	7.98471	0.2236049	0.0459	8.190054	1.73926
1458	7.98535	0.2151712	0.0398	8.193581	1.67005
1459	7.98615	0.2079698	0.0398	8.196535	1.61109
1460	7.98737	0.2011995	0.0430	8.199213	1.55577
1461	7.98860	0.1949811	0.0519	8.201648	1.50507
1462	7.98950	0.1895083	0.0429	8.203821	1.46054
1463	7.99062	0.1842180	0.0366	8.205870	1.41757
1464	7.99120	0.1795060	0.0458	8.207772	1.37939
1465	7.99248	0.1863749	0.0489	8.204576	1.43499
1466	7.99349	0.2164507	0.0550	8.191421	1.68015
1467	7.99456	0.2381203	0.0520	8.181814	1.85822
1468	7.99573	0.2395310	0.0488	8.180970	1.86979
1469	7.99701	0.2454619	0.0429	8.178138	1.91869
1470	7.99791	0.2516295	0.0488	8.175272	1.96965
1471	7.99951	0.2433466	0.0429	8.178567	1.90108
1472	8.00058	0.2327241	0.0489	8.182975	1.81344
1473	8.00159	0.2233434	0.0459	8.186844	1.73628
1474	8.00303	0.2153437	0.0431	8.190021	1.67063
1475	8.00430	0.2083207	0.0460	8.192801	1.61313
1476	8.00553	0.2022968	0.0429	8.195155	1.56391
1477	8.00723	0.1966098	0.0431	8.197265	1.51752
1478	8.00830	0.1914519	0.0430	8.199270	1.47555
1479	8.01022	0.1868500	0.0461	8.200865	1.43812
1480	8.01160	0.1826942	0.0460	8.202370	1.40439
1481	8.01309	0.1788489	0.0459	8.203720	1.37322
1482	8.01517	0.1862344	0.0430	8.200149	1.43293
1483	8.01703	0.2167182	0.0430	8.186668	1.68121
1484	8.01959	0.2389229	0.0430	8.176548	1.86351
1485	8.02151	0.2419236	0.0460	8.174868	1.88815
1486	8.02385	0.2506000	0.0399	8.170635	1.95969
1487	8.03478	0.2567419	0.0461	8.165820	2.00990
